#Wave		#Intensity
4001.644531	-67.529732
4000.500000	-20.254797
3999.354492	183.561432
3998.209961	116.652779
3997.064453	27.987019
3995.918945	-112.975838
3994.772461	47.249565
3993.626953	-21.591267
3992.480469	214.979538
3991.333984	69.893799
3990.187500	-27.132683
3989.040039	-23.811615
3987.893555	-70.579437
3986.746094	24.345570
3985.598633	132.345276
3984.451172	-5.798052
3983.302734	141.442093
3982.154297	138.420670
3981.006836	17.876020
3979.857422	67.187225
3978.708984	-18.412132
3977.560547	48.361416
3976.411133	82.511421
3975.261719	55.779655
3974.112305	-3.530582
3972.961914	13.310192
3971.811523	-48.083271
3970.662109	88.357788
3969.511719	131.337204
3968.360352	98.286583
3967.209961	21.830811
3966.058594	30.132402
3964.907227	27.600187
3963.755859	51.147396
3962.604492	176.731445
3961.452148	41.865093
3960.299805	-34.341736
3959.147461	-36.735554
3957.995117	6.444810
3956.841797	-41.451138
3955.689453	-4.745868
3954.536133	34.135956
3953.382813	116.373520
3952.228516	44.740761
3951.075195	40.320347
3949.920898	98.743202
3948.766602	122.510010
3947.612305	-74.590919
3946.458008	20.682600
3945.302734	124.598030
3944.147461	29.379639
3942.992188	16.440037
3941.836914	116.022156
3940.680664	51.190178
3939.525391	1.535317
3938.369141	-0.515493
3937.211914	42.849346
3936.055664	30.012751
3934.898438	66.900024
3933.742188	-34.497791
3932.584961	36.978546
3931.426758	73.883347
3930.269531	-46.857605
3929.111328	54.845207
3927.953125	-3.222039
3926.794922	68.241043
3925.636719	49.056072
3924.477539	21.258881
3923.319336	-4.362261
3922.160156	-29.963804
3921.000000	52.269573
3919.840820	-31.525749
3918.680664	61.471870
3917.520508	7.894281
3916.360352	-80.131668
3915.200195	40.851917
3914.040039	-64.365509
3912.878906	0.592569
3911.717773	-7.673979
3910.556641	80.941689
3909.394531	-75.836708
3908.233398	98.847610
3907.071289	-32.047836
3905.909180	52.225269
3904.746094	147.226349
3903.583984	16.406925
3902.420898	33.987976
3901.257813	40.818161
3900.094727	64.842018
3898.931641	138.281662
3897.767578	78.497856
3896.603516	31.626106
3895.439453	-23.816759
3894.275391	81.801804
3893.111328	41.400711
3891.946289	-48.350906
3890.781250	10.005976
3889.616211	-23.919525
3888.451172	90.187775
3887.285156	-12.372856
3886.119141	-20.541063
3884.953125	20.605766
3883.787109	23.151632
3882.620117	53.558655
3881.454102	-6.046822
3880.287109	-31.351648
3879.120117	9.754851
3877.952148	52.987007
3876.785156	76.929192
3875.617188	-10.463838
3874.449219	43.444008
3873.281250	-16.094545
3872.112305	54.907547
3870.944336	-4.616664
3869.775391	109.128632
3868.606445	51.749279
3867.436523	-54.787945
3866.267578	1.175147
3865.097656	-2.729949
3863.927734	113.029388
3862.757813	12.953489
3861.587891	-61.456596
3860.416992	45.694378
3859.246094	-35.108543
3858.075195	-11.274205
3856.904297	40.295387
3855.732422	-23.402718
3854.560547	43.076759
3853.388672	73.258820
3852.216797	41.568130
3851.044922	3.485761
3849.872070	-6.869180
3848.699219	31.804581
3847.526367	-38.243080
3846.353516	-80.567955
3845.179688	21.998379
3844.005859	56.353413
3842.832031	67.260956
3841.658203	107.969917
3840.484375	57.108601
3839.309570	97.791214
3838.134766	76.732681
3836.959961	62.058395
3835.785156	62.274349
3834.609375	75.245964
3833.434570	-28.762268
3832.258789	56.499611
3831.082031	150.226563
3829.906250	41.989040
3828.729492	65.540146
3827.552734	95.448883
3826.375977	-36.108803
3825.199219	59.632645
3824.021484	-29.414776
3822.844727	66.273590
3821.666992	23.941256
3820.489258	-69.319771
3819.310547	94.201561
3818.131836	-35.120975
3816.954102	5.288329
3815.774414	-47.638691
3814.595703	56.352539
3813.416992	73.377129
3812.237305	64.952011
3811.057617	120.097260
3809.877930	-121.420097
3808.697266	-106.527946
3807.516602	-38.699863
3806.336914	204.856750
3805.155273	60.860916
3803.974609	-11.118864
3802.792969	77.769852
3801.612305	33.304222
3800.430664	120.017807
3799.248047	-51.373371
3798.066406	-26.026682
3796.883789	-4.926908
3795.701172	-19.784328
3794.518555	-36.759117
3793.335938	-24.150606
3792.152344	-0.991273
3790.968750	62.288185
3789.785156	-81.455070
3788.601563	30.367342
3787.417969	76.686562
3786.233398	76.538193
3785.048828	48.943005
3783.864258	135.298203
3782.678711	25.401852
3781.494141	80.069466
3780.308594	-156.335785
3779.123047	104.971313
3777.937500	37.288136
3776.750977	123.493256
3775.564453	-28.484522
3774.377930	51.360420
3773.191406	-37.366917
3772.004883	23.474592
3770.817383	73.754944
3769.629883	37.682041
3768.442383	5.823038
3767.254883	24.479471
3766.066406	-22.113943
3764.878906	78.574883
3763.690430	-20.618427
3762.500977	6.404512
3761.312500	29.202209
3760.123047	-15.293324
3758.933594	-49.271809
3757.744141	15.527529
3756.554688	88.697983
3755.364258	23.179533
3754.173828	-8.717258
3752.983398	-19.611256
3751.792969	-49.407204
3750.602539	-33.017910
3749.411133	8.542725
3748.219727	-96.813385
3747.028320	154.532455
3745.835938	74.342697
3744.644531	90.648720
3743.452148	-31.455551
3742.259766	-52.890663
3741.067383	-5.154864
3739.874023	-41.274559
3738.680664	69.284302
3737.487305	81.330620
3736.293945	-0.891670
3735.100586	67.688293
3733.906250	-10.330449
3732.711914	74.956085
3731.517578	95.319183
3730.323242	42.424675
3729.127930	39.754890
3727.932617	41.261433
3726.737305	55.307892
3725.541992	48.430214
3724.345703	-14.901261
3723.150391	36.748199
3721.954102	123.898811
3720.757813	-4.210183
3719.560547	93.344910
3718.364258	52.999859
3717.166992	43.987221
3715.969727	26.618059
3714.771484	101.100456
3713.574219	121.280884
3712.375977	153.967056
3711.177734	48.931217
3709.979492	44.055542
3708.780273	-35.908215
3707.582031	42.627926
3706.382813	-33.150696
3705.183594	103.705719
3703.983398	69.610771
3702.784180	31.354153
3701.583984	93.102364
3700.383789	115.245644
3699.182617	66.568199
3697.982422	174.061417
3696.781250	94.151520
3695.580078	26.752954
3694.378906	256.949768
3693.177734	93.826530
3691.975586	188.700104
3690.773438	23.557461
3689.571289	112.157722
3688.369141	154.980453
3687.166016	143.736313
3685.962891	221.854691
3684.759766	98.385941
3683.556641	109.992760
3682.352539	75.893341
3681.149414	135.252090
3679.945313	225.727753
3678.740234	235.202744
3677.536133	180.327301
3676.331055	247.900040
3675.126953	66.471664
3673.920898	171.368179
3672.715820	309.404358
3671.510742	186.110626
3670.304688	172.737656
3669.098633	254.714371
3667.891602	204.019699
3666.685547	283.878204
3665.478516	226.972214
3664.271484	186.652817
3663.064453	251.959167
3661.857422	253.051254
3660.649414	260.348419
3659.441406	331.799866
3658.233398	351.487030
3657.025391	373.231506
3655.816406	483.911835
3654.607422	276.046600
3653.398438	425.983795
3652.189453	342.243805
3650.980469	366.016357
3649.770508	441.442200
3648.560547	405.258209
3647.350586	416.599243
3646.139648	409.343079
3644.929688	449.583557
3643.718750	384.505310
3642.507813	391.699493
3641.295898	314.265778
3640.084961	397.815369
3638.873047	504.025360
3637.661133	451.358673
3636.449219	336.836945
3635.236328	356.385712
3634.023438	468.697266
3632.810547	436.677917
3631.597656	493.284302
3630.384766	453.025299
3629.170898	338.616028
3627.957031	434.336182
3626.743164	499.128693
3625.529297	434.182129
3624.314453	387.784851
3623.099609	524.578857
3621.884766	552.258057
3620.669922	551.121826
3619.454102	465.646576
3618.239258	466.579987
3617.023438	442.836639
3615.806641	451.994293
3614.590820	524.866028
3613.374023	474.404968
3612.157227	598.610107
3610.940430	461.870575
3609.723633	668.187012
3608.505859	447.288208
3607.288086	503.647186
3606.070313	617.462280
3604.852539	521.890259
3603.633789	467.393402
3602.415039	521.652161
3601.196289	508.199432
3599.977539	708.039185
3598.758789	548.973145
3597.539063	535.521729
3596.319336	552.820557
3595.099609	584.458069
3593.878906	552.566833
3592.659180	729.639221
3591.438477	617.854919
3590.217773	573.689453
3588.996094	631.910095
3587.775391	649.169373
3586.553711	637.769592
3585.332031	691.854675
3584.109375	713.185547
3582.887695	558.599365
3581.665039	684.248901
3580.442383	558.353333
3579.219727	671.691467
3577.996094	617.385254
3576.773438	614.189697
3575.549805	543.571045
3574.325195	805.955261
3573.101563	745.542114
3571.876953	705.573425
3570.652344	639.079651
3569.427734	858.388611
3568.203125	644.951050
3566.977539	731.548035
3565.752930	771.191406
3564.526367	706.795959
3563.300781	713.803406
3562.075195	824.797668
3560.848633	738.009888
3559.622070	749.089905
3558.395508	688.844849
3557.167969	814.030945
3555.940430	806.764221
3554.712891	866.712708
3553.485352	853.334473
3552.257813	752.420593
3551.029297	832.708252
3549.800781	784.754822
3548.572266	783.621460
3547.343750	835.385376
3546.114258	948.152405
3544.884766	946.997925
3543.655273	783.188660
3542.425781	737.349243
3541.195313	768.763611
3539.965820	993.217468
3538.734375	888.454468
3537.503906	858.893555
3536.273438	951.203247
3535.041992	958.198242
3533.810547	831.203064
3532.579102	866.642517
3531.346680	904.101501
3530.115234	974.015015
3528.882813	877.556580
3527.650391	1030.615601
3526.416992	984.887695
3525.184570	1083.134155
3523.951172	932.011780
3522.717773	1149.817261
3521.483398	915.666748
3520.250000	1038.181152
3519.015625	1099.885132
3517.781250	993.478149
3516.545898	1119.971313
3515.311523	1037.902588
3514.076172	1083.385986
3512.840820	938.630188
3511.605469	1054.940430
3510.369141	1130.752808
3509.133789	1048.782715
3507.897461	950.671326
3506.660156	1125.543091
3505.423828	1067.891846
3504.186523	1022.393860
3502.949219	1207.271851
3501.711914	1143.592285
3500.474609	1174.876831
3499.236328	1187.979248
3497.998047	1201.081909
3496.759766	1093.060425
3495.521484	1164.719360
3494.282227	1169.763428
3493.042969	1194.987061
3491.803711	1163.724854
3490.564453	1154.664917
3489.324219	1222.239746
3488.084961	1281.730713
3486.844727	1274.686646
3485.603516	1243.467041
3484.363281	1300.922607
3483.122070	1255.620117
3481.880859	1246.595215
3480.639648	1251.676758
3479.397461	1286.963867
3478.156250	1312.178589
3476.914063	1341.415405
3475.671875	1398.819336
3474.428711	1321.409790
3473.186523	1342.600586
3471.943359	1343.678345
3470.700195	1411.117554
3469.456055	1412.194824
3468.212891	1405.237793
3466.968750	1388.241943
3465.724609	1379.296387
3464.479492	1440.670654
3463.235352	1449.807983
3461.990234	1382.639771
3460.745117	1347.627808
3459.499023	1336.723877
3458.253906	1472.340088
3457.007813	1304.915527
3455.761719	1428.463257
3454.515625	1359.409668
3453.268555	1488.930664
3452.021484	1407.875732
3450.775391	1332.871826
3449.527344	1422.259033
3448.280273	1351.302734
3447.032227	1450.684448
3445.784180	1333.690674
3444.536133	1475.111328
3443.287109	1560.417847
3442.039063	1349.394165
3440.790039	1284.580200
3439.541016	1381.904053
3438.291016	1547.229492
3437.041992	1608.471069
3435.791992	1385.673340
3434.541992	1446.937256
3433.291016	1402.216797
3432.041016	1479.461670
3430.790039	1546.691406
3429.539063	1480.018555
3428.287109	1529.256836
3427.036133	1404.699219
3425.784180	1412.008057
3424.532227	1507.179443
3423.280273	1454.589478
3422.027344	1465.900146
3420.774414	1483.200439
3419.521484	1508.483032
3418.268555	1531.769043
3417.014648	1371.559692
3415.761719	1345.024414
3414.507813	1404.238892
3413.252930	1401.644043
3411.999023	1331.296143
3410.744141	1386.517822
3409.489258	1587.160034
3408.234375	1411.271606
3406.978516	1572.019775
3405.723633	1376.304810
3404.467773	1527.060425
3403.210938	1520.529053
3401.955078	1420.477905
3400.698242	1497.548340
3399.441406	1604.435791
3398.184570	1490.528076
3396.927734	1430.359741
3395.669922	1461.675293
3394.412109	1365.772949
3393.154297	1560.067505
3391.896484	1539.703491
3390.637695	1382.280640
3389.378906	1419.574707
3388.120117	1341.683472
3386.861328	1486.202148
3385.601563	1330.926147
3384.341797	1431.744995
3383.082031	1457.128662
3381.822266	1359.505127
3380.561523	1345.237793
3379.300781	1366.681763
3378.040039	1493.215698
3376.779297	1500.762085
3375.517578	1288.302979
3374.256836	1410.840576
3372.995117	1388.703247
3371.732422	1471.572876
3370.470703	1342.497559
3369.208008	1439.222290
3367.945313	1369.613159
3366.682617	1349.524414
3365.418945	1307.682495
3364.155273	1309.395508
3362.891602	1342.769409
3361.627930	1455.256836
3360.363281	1330.400757
3359.099609	1444.841309
3357.834961	1333.888550
3356.569336	1327.738770
3355.304688	1284.052979
3354.039063	1273.979248
3352.773438	1342.930664
3351.507813	1407.914063
3350.241211	1338.610107
3348.975586	1279.210938
3347.708984	1308.665527
3346.442383	1261.151611
3345.174805	1278.776489
3343.907227	1345.719971
3342.639648	1264.721191
3341.372070	1325.742432
3340.104492	1438.008911
3338.835938	1402.401123
3337.567383	1364.844238
3336.298828	1252.432373
3335.029297	1218.874756
3333.760742	1360.641113
3332.491211	1390.110352
3331.221680	1246.307617
3329.951172	1271.866455
3328.681641	1285.613892
3327.411133	1281.653564
3326.139648	1342.630371
3324.869141	1364.248413
3323.597656	1224.596680
3322.327148	1228.547974
3321.054688	1102.753174
3319.783203	1149.985229
3318.510742	1340.669434
3317.238281	1372.135742
3315.965820	1275.907593
3314.693359	1399.702515
3313.419922	1274.065918
3312.146484	1232.908447
3310.873047	1140.737061
3309.599609	1213.467163
3308.325195	1188.066895
3307.050781	1382.411865
3305.776367	1288.351685
3304.501953	1384.563477
3303.226563	1210.164429
3301.951172	1331.854614
3300.675781	1306.506348
3299.400391	1198.871460
3298.124023	1201.003418
3296.847656	1238.402466
3295.571289	1240.541138
3294.294922	1279.890625
3293.017578	1240.923462
3291.740234	1288.103149
3290.462891	1260.906128
3289.185547	1229.812866
3287.907227	1230.040039
3286.628906	1255.701538
3285.350586	1318.514526
3284.072266	1307.015747
3282.792969	1195.835815
3281.513672	1313.370361
3280.234375	1180.751099
3278.955078	1327.563110
3277.674805	999.678284
3276.394531	1304.669922
3275.114258	1263.952393
3273.833984	1225.208984
3272.552734	1221.621216
3271.272461	1245.360474
3269.990234	1171.546753
3268.708984	1226.512085
3267.426758	1164.445557
3266.145508	1297.403076
3264.862305	1237.310425
3263.580078	1311.741943
3262.296875	1212.706665
3261.014648	1380.653442
3259.731445	1192.044189
3258.447266	1439.802124
3257.164063	1136.373901
3255.879883	1148.477905
3254.595703	1226.768433
3253.310547	1197.993896
3252.026367	1249.015991
3250.741211	1255.279541
3249.456055	1174.017090
3248.169922	1141.412109
3246.884766	1143.822876
3245.598633	1105.416382
3244.312500	1315.815308
3243.025391	1222.992554
3241.739258	1266.212769
3240.452148	1330.791504
3239.165039	1269.112305
3237.876953	1304.552368
3236.589844	1161.374390
3235.301758	1121.133423
3234.013672	1152.718018
3232.724609	1294.894165
3231.436523	1163.492310
3230.147461	1237.739624
3228.857422	1075.385620
3227.568359	1326.064331
3226.278320	1134.690552
3224.989258	1166.272095
3223.698242	1137.781250
3222.408203	1180.986328
3221.117188	1162.199341
3219.826172	1197.649536
3218.535156	1130.471924
3217.244141	1086.555420
3215.952148	1292.339478
3214.660156	1130.379517
3213.368164	1204.524658
3212.076172	1056.194824
3210.783203	1170.951538
3209.490234	1082.638916
3208.197266	1120.026978
3206.903320	1149.675415
3205.610352	1107.813232
3204.316406	1156.784058
3203.022461	1192.218994
3201.727539	1055.750977
3200.432617	1077.685547
3199.137695	1120.853638
3197.842773	880.256226
3196.547852	938.895142
3195.251953	1014.883423
3193.956055	1073.484375
3192.660156	1108.922241
3191.363281	955.363525
3190.067383	967.682373
3188.770508	1118.798096
3187.472656	1019.305847
3186.175781	966.103088
3184.877930	937.971985
3183.580078	942.602173
3182.282227	877.903259
3180.983398	907.585022
3179.684570	904.531799
3178.385742	1095.885742
3177.086914	969.644287
3175.788086	930.036865
3174.488281	671.152649
3173.188477	1025.902466
3171.887695	924.787842
3170.587891	852.553467
3169.287109	843.783752
3167.986328	794.663025
3166.685547	922.339050
3165.383789	840.572449
3164.082031	925.943420
3162.780273	874.940613
3161.478516	810.521057
3160.175781	813.317383
3158.873047	846.823792
3157.570313	863.051514
3156.267578	762.247070
3154.963867	724.784790
3153.660156	769.804382
3152.356445	715.105103
3151.052734	739.028259
3149.748047	619.196655
3148.443359	775.361938
3147.138672	718.801331
3145.833984	700.576843
3144.528320	508.080780
3143.222656	796.283997
3141.916992	613.421387
3140.610352	595.245789
3139.304688	571.337097
3137.998047	553.182068
3136.691406	582.861511
3135.383789	646.960815
3134.076172	573.355225
3132.768555	515.075928
3131.460938	491.228912
3130.153320	425.348022
3128.844727	649.936768
3127.536133	561.131592
3126.227539	518.204346
3124.917969	492.484558
3123.608398	556.515320
3122.298828	454.444061
3120.989258	447.843933
3119.678711	445.066132
3118.369141	423.211639
3117.057617	363.220490
3115.747070	524.479248
3114.436523	460.680542
3113.125000	335.905121
3111.813477	437.996460
3110.500977	425.712280
3109.189453	504.887207
3107.876953	321.154755
3106.564453	415.560394
3105.250977	382.351746
3103.937500	372.003265
3102.625000	355.948395
3101.310547	480.733063
3099.997070	344.795868
3098.682617	311.641113
3097.368164	274.696625
3096.053711	329.045837
3094.739258	305.423340
3093.423828	314.128021
3092.108398	334.233459
3090.792969	295.426819
3089.476563	277.535614
3088.160156	272.948090
3086.843750	192.400497
3085.527344	301.755371
3084.210938	209.844910
3082.893555	239.442413
3081.576172	282.312317
3080.257813	232.202805
3078.940430	265.574707
3077.622070	200.316895
3076.303711	214.722931
3074.984375	187.418121
3073.666016	226.462463
3072.346680	261.703339
3071.027344	240.090500
3069.707031	262.056915
3068.387695	200.679688
3067.067383	211.284180
3065.747070	136.689331
3064.425781	262.768494
3063.104492	120.064011
3061.783203	336.920532
3060.461914	154.529404
3059.140625	91.367172
3057.818359	14.993225
3056.496094	78.558762
3055.173828	94.841812
3053.850586	69.540695
3052.527344	74.482384
3051.204102	51.083584
3049.880859	107.025154
3048.556641	110.068405
3047.233398	65.905418
3045.909180	97.270775
3044.583984	122.962776
3043.259766	103.353668
3041.934570	68.659737
3040.608398	124.522270
3039.283203	31.371910
3037.957031	92.875343
3036.630859	29.929861
3035.304688	138.529572
3033.978516	103.865089
3032.651367	16.458712
3031.324219	94.856171
3029.997070	79.052299
3028.668945	200.716354
3027.341797	60.639565
3026.013672	18.496675
3024.684570	21.537144
3023.356445	82.902809
3022.027344	14.440509
3020.698242	113.399368
3019.368164	142.741608
3018.039063	17.899338
3016.708984	43.486252
3015.378906	147.996353
3014.047852	30.739492
3012.717773	101.392204
3011.386719	91.250046
3010.055664	-16.543570
3008.723633	74.728203
3007.392578	-4.865768
3006.060547	-3.724516
3004.727539	31.192680
3003.395508	-5.200321
3002.062500	3.438884
3000.729492	87.088936
2999.396484	73.202179
2998.062500	94.938805
2996.728516	94.172966
2995.394531	-41.519936
2994.060547	43.921822
2992.725586	1.949677
2991.390625	38.651905
2990.055664	-83.825783
2988.720703	16.527073
2987.384766	32.609653
2986.048828	37.454826
2984.712891	90.943405
2983.376953	88.287270
2982.040039	10.817480
2980.703125	62.403332
2979.366211	46.660267
2978.028320	-4.594088
2976.690430	60.040089
2975.352539	14.403089
2974.014648	50.980228
2972.675781	-2.113267
2971.336914	-47.719509
2969.998047	95.264740
2968.659180	114.986649
2967.319336	-3.411694
2965.979492	148.802795
2964.639648	121.853714
2963.299805	-50.579777
2961.958984	47.464458
2960.618164	20.542280
2959.277344	14.133140
2957.935547	69.230904
2956.593750	96.352127
2955.251953	48.934765
2953.910156	76.042267
2952.567383	19.329359
2951.225586	-41.090195
2949.881836	8.350670
2948.539063	-50.187889
2947.195313	19.698849
2945.852539	63.505276
2944.507813	86.831131
2943.164063	33.888374
2941.819336	-125.027916
2940.474609	145.575409
2939.129883	8.996676
2937.784180	49.018017
2936.439453	-52.193516
2935.093750	-25.187605
2933.747070	16.663879
2932.401367	-84.493477
2931.054688	-77.930580
2929.708008	73.413643
2928.360352	72.512718
2927.013672	-24.881290
2925.666016	141.194565
2924.318359	-50.777962
2922.969727	33.635075
2921.621094	6.765275
2920.272461	124.492981
2918.923828	-95.144249
2917.575195	-31.188910
2916.225586	-61.747097
2914.875977	20.692247
2913.525391	73.465164
2912.175781	-7.101746
2910.825195	8.622619
2909.474609	79.862213
2908.123047	12.282665
2906.772461	24.279932
2905.420898	-32.172867
2904.069336	42.700241
2902.716797	45.427414
2901.364258	90.668663
2900.011719	113.707664
2898.659180	1.829533
2897.305664	124.640060
2895.953125	62.669785
2894.599609	-47.299633
2893.245117	36.657303
2891.891602	46.728142
2890.537109	25.411802
2889.181641	42.854729
2887.827148	4.931272
2886.471680	-23.757633
2885.116211	56.378746
2883.760742	33.212696
2882.405273	-58.165474
2881.048828	10.856567
2879.692383	-21.516670
2878.334961	-42.825695
2876.978516	-14.392147
2875.621094	17.709806
2874.263672	47.952522
2872.905273	-67.273628
2871.547852	29.232225
2870.189453	81.525269
2868.830078	-4.213865
2867.471680	37.016003
2866.112305	2.810566
2864.752930	40.334839
2863.393555	4.292410
2862.033203	73.042870
2860.672852	-60.413067
2859.312500	4.636739
2857.952148	93.539436
2856.590820	70.353821
2855.229492	71.046188
2853.868164	69.896324
2852.505859	-12.033105
2851.144531	63.910809
2849.782227	-69.379471
2848.418945	21.214188
2847.056641	38.390854
2845.693359	106.908211
2844.330078	-2.471264
2842.965820	-21.981537
2841.602539	11.663893
2840.238281	-6.020740
2838.874023	84.396507
2837.508789	15.401127
2836.143555	-2.290998
2834.778320	33.121143
2833.413086	9.928063
2832.046875	-37.057129
2830.681641	-10.827398
2829.314453	53.811966
2827.948242	1.339567
2826.581055	129.954361
2825.214844	7.986428
2823.846680	101.800583
2822.479492	80.410889
2821.111328	44.403721
2819.743164	-37.276463
2818.375000	-20.280062
2817.005859	-23.387283
2815.636719	30.111246
2814.267578	23.331234
2812.898438	-36.390419
2811.528320	-83.318550
2810.158203	-77.317497
2808.788086	8.947678
2807.416992	-14.267851
2806.046875	44.583408
2804.675781	10.417307
2803.303711	71.052429
2801.932617	35.058998
2800.560547	28.230043
2799.188477	-35.081215
2797.815430	89.243889
2796.443359	56.892315
2795.070313	-13.689384
2793.696289	61.387444
2792.323242	-25.561548
2790.949219	16.719736
2789.575195	129.934158
2788.201172	-93.423882
2786.826172	7.024715
2785.451172	-23.492012
2784.076172	47.802784
2782.701172	-37.251549
2781.325195	-36.867458
2779.949219	-23.771973
2778.573242	-47.019054
2777.196289	-37.571651
2775.819336	-11.792036
2774.442383	-51.386509
2773.065430	63.313629
2771.687500	-10.773496
2770.309570	-8.632929
2768.931641	56.992405
2767.553711	73.615196
2766.174805	-22.202642
2764.795898	36.115139
2763.416992	5.583921
2762.037109	-55.750515
2760.657227	65.937614
2759.277344	22.717632
2757.897461	35.655464
2756.516602	-74.556892
2755.135742	-72.480843
2753.754883	-5.246753
2752.373047	34.807575
2750.991211	0.651754
2749.609375	-102.243019
2748.227539	4.709670
2746.844727	-90.925400
2745.461914	-5.726194
2744.079102	-45.297459
2742.696289	-108.355263
2741.312500	2.074830
2739.928711	34.769836
2738.544922	-35.511692
2737.160156	-8.252871
2735.775391	76.765976
2734.390625	-44.048664
2733.005859	37.320549
2731.620117	-43.753319
2730.234375	-23.770540
2728.848633	21.450523
2727.461914	-32.541290
2726.076172	7.240565
2724.689453	-53.952183
2723.301758	54.295734
2721.915039	-24.916555
2720.527344	-5.012407
2719.138672	-30.155651
2717.750977	65.368103
2716.362305	7.796120
2714.973633	43.852783
2713.584961	-8.306629
2712.195313	-71.249298
2710.806641	38.547565
2709.416016	-51.375656
2708.026367	13.398430
2706.635742	11.609696
2705.245117	-71.085304
2703.854492	65.531212
2702.462891	78.089287
2701.072266	-15.371611
2699.680664	-121.377029
2698.288086	76.179459
2696.896484	16.870798
2695.503906	16.824244
2694.110352	-4.768323
2692.717773	72.343315
2691.324219	65.088142
2689.930664	5.805626
2688.537109	86.436203
2687.142578	80.954834
2685.748047	61.126064
2684.353516	12.618103
2682.958984	26.846977
2681.563477	62.564976
2680.167969	49.893349
2678.771484	67.668358
2677.375977	28.125685
2675.979492	-25.731335
2674.583008	-16.923279
2673.185547	77.779167
2671.789063	4.240624
2670.391602	43.429237
2668.993164	21.782990
2667.595703	132.469513
2666.197266	-0.050653
2664.798828	39.080372
2663.400391	33.508583
2662.000977	-25.673454
2660.601563	16.991753
2659.202148	64.991516
2657.801758	132.609787
2656.401367	116.277954
2655.000977	94.590019
2653.600586	-12.764068
2652.199219	45.866325
2650.797852	106.250740
2649.396484	-6.414285
2647.995117	87.826096
2646.592773	162.409851
2645.190430	53.344826
2643.787109	12.043334
2642.384766	63.411716
2640.981445	2.512885
2639.578125	9.318080
2638.173828	98.035011
2636.769531	76.316338
2635.365234	77.741890
2633.960938	-27.630203
2632.555664	64.555206
2631.150391	19.704199
2629.745117	74.475731
2628.339844	15.398861
2626.933594	-34.770882
2625.527344	66.179489
2624.121094	24.892321
2622.713867	29.817707
2621.306641	4.530714
2619.899414	135.563828
2618.492188	115.580132
2617.083984	-10.940261
2615.675781	-29.125631
2614.266602	-4.712199
2612.858398	78.245644
2611.449219	6.805962
2610.040039	48.916183
2608.629883	9.420391
2607.220703	69.231514
2605.810547	153.831909
2604.399414	25.694466
2602.989258	9.245083
2601.578125	63.666523
2600.166992	109.202385
2598.754883	21.882757
2597.343750	-5.204564
2595.930664	84.557274
2594.518555	-18.656561
2593.106445	-13.885562
2591.693359	52.803173
2590.280273	80.541214
2588.866211	127.716766
2587.452148	-53.241947
2586.038086	108.843544
2584.624023	-13.723037
2583.208984	49.311993
2581.794922	48.707424
2580.378906	60.462284
2578.963867	20.986267
2577.547852	-30.841730
2576.131836	33.866497
2574.715820	89.716682
2573.298828	82.005669
2571.881836	128.988876
2570.464844	-69.262634
2569.047852	-34.627769
2567.629883	52.888809
2566.211914	66.316200
2564.793945	18.036997
2563.375000	27.927853
2561.956055	32.522282
2560.537109	26.538319
2559.118164	11.743798
2557.698242	32.167465
2556.278320	91.310135
2554.857422	99.374863
2553.437500	103.910416
2552.016602	50.371952
2550.595703	97.123344
2549.173828	161.438431
2547.752930	62.179230
2546.330078	56.135735
2544.908203	7.900563
2543.485352	165.302597
2542.063477	30.952456
2540.639648	60.029694
2539.216797	73.281288
2537.792969	253.348846
2536.369141	119.061844
2534.945313	69.080460
2533.520508	-15.988514
2532.095703	113.042343
2530.670898	-0.084034
2529.245117	86.783813
2527.819336	7.013979
2526.393555	60.520538
2524.967773	14.081097
2523.541016	21.984304
2522.114258	19.364630
2520.687500	-25.306234
2519.260742	31.625048
2517.833008	158.576263
2516.405273	61.359142
2514.976563	95.463478
2513.547852	22.787201
2512.119141	55.123283
2510.690430	89.190010
2509.261719	88.254234
2507.832031	31.350912
2506.402344	30.414351
2504.971680	85.410889
2503.541016	77.460396
2502.110352	116.686668
2500.679688	127.938347
2499.248047	104.244995
2497.816406	89.286797
2496.384766	180.835495
2494.953125	109.994370
2493.520508	77.572021
2492.087891	71.331169
2490.655273	58.108253
2489.221680	-44.074280
2487.788086	66.538246
2486.354492	68.998100
2484.919922	33.099194
2483.485352	115.725853
2482.050781	105.958176
2480.616211	71.797646
2479.180664	93.383865
2477.745117	78.383644
2476.309570	120.842171
2474.873047	48.383171
2473.437500	130.849808
2472.000000	25.342958
2470.563477	86.891907
2469.125977	52.740894
2467.688477	89.900269
2466.250977	128.778015
2464.812500	127.650887
2463.374023	79.590538
2461.935547	121.904602
2460.497070	59.953926
2459.057617	46.658344
2457.618164	73.305809
2456.177734	129.454086
2454.738281	74.471596
2453.297852	61.160339
2451.857422	37.436726
2450.416016	109.138527
2448.974609	71.526131
2447.533203	20.048779
2446.091797	93.428162
2444.649414	121.699310
2443.207031	52.893135
2441.764648	122.738907
2440.321289	150.969879
2438.877930	85.645782
2437.434570	119.057159
2435.990234	123.013687
2434.546875	80.222244
2433.101563	84.173294
2431.657227	50.047314
2430.211914	135.307327
2428.766602	73.496758
2427.321289	144.871460
2425.875977	181.630432
2424.429688	142.304016
2422.983398	142.740799
2421.536133	91.330002
2420.089844	57.211685
2418.642578	45.556843
2417.194336	101.254402
2415.747070	1.523788
2414.298828	53.744228
2412.849609	137.006058
2411.401367	132.221603
2409.952148	49.794487
2408.502930	84.691978
2407.052734	166.134323
2405.603516	109.597588
2404.152344	75.488045
2402.703125	115.501762
2401.251953	117.581841
2399.800781	173.065720
2398.349609	140.671661
2396.898438	89.341103
2395.445313	139.614761
2393.994141	76.243500
2392.541016	143.700592
2391.087891	154.338181
2389.634766	151.202148
2388.181641	118.819626
2386.728516	110.522171
2385.275391	95.344711
2383.820313	13.121632
2382.365234	66.708992
2380.910156	92.775017
2379.455078	70.719139
2378.000000	69.279648
2376.544922	76.422386
2375.089844	61.235497
2373.632813	40.898300
2372.175781	84.069878
2370.718750	80.886223
2369.261719	77.698669
2367.804688	67.645905
2366.347656	100.466965
2364.888672	38.962456
2363.429688	-20.808107
2361.972656	42.847363
2360.513672	61.916553
2359.054688	-8.117672
2357.593750	53.766464
2356.134766	67.669235
2354.673828	72.998932
2353.214844	32.100964
2351.753906	90.484428
2350.292969	41.031879
2348.832031	-13.538651
2347.369141	56.776512
2345.908203	67.202721
2344.445313	113.525627
2342.984375	-17.964209
2341.521484	7.837196
2340.058594	57.547058
2338.593750	-8.946952
2337.130859	112.479027
2335.667969	28.914095
2334.203125	-8.522168
2332.738281	99.158089
2331.273438	-15.092236
2329.808594	63.526672
2328.343750	65.334656
2326.878906	-38.620430
2325.412109	74.048798
2323.945313	74.132713
2322.478516	63.983131
2321.011719	-4.116480
2319.544922	-7.439550
2318.078125	42.049091
2316.611328	1.234470
2315.142578	42.175549
2313.673828	-22.471535
2312.205078	101.863548
2310.736328	96.791397
2309.267578	20.246605
2307.798828	3.274104
2306.328125	-32.408726
2304.859375	-34.067425
2303.388672	3.375576
2301.917969	40.798622
2300.447266	-6.778986
2298.974609	-64.539307
2297.503906	-66.214630
2296.031250	56.102402
2294.560547	-8.441329
2293.087891	188.514389
2291.615234	1896.231934
2290.142578	1760.058838
2288.667969	1866.590210
2287.195313	193.386917
2285.720703	-28.885290
2284.246094	32.138363
2282.773438	-61.159309
2281.296875	-30.677710
2279.822266	13.347582
2278.347656	16.682201
2276.871094	40.339565
2275.396484	-44.420994
2273.919922	45.276459
2272.443359	-15.757493
2270.966797	55.268181
2269.488281	-137.766678
2268.011719	2.623632
2266.533203	-46.529484
2265.056641	-21.241766
2263.578125	-33.174709
2262.099609	-65.396599
2260.619141	12.266813
2259.140625	0.321066
2257.662109	-64.006607
2256.181641	10.217789
2254.701172	-20.314972
2253.220703	8.265972
2251.740234	70.599304
2250.259766	-17.334497
2248.777344	-49.543835
2247.296875	39.748386
2245.814453	-5.964410
2244.332031	71.466103
2242.849609	25.756485
2241.367188	-95.810287
2239.884766	-23.478350
2238.400391	-48.931675
2236.917969	-12.032015
2235.433594	-10.531375
2233.949219	9.492285
2232.464844	-47.960049
2230.978516	-85.191521
2229.494141	-46.661236
2228.009766	-1.418677
2226.523438	-48.745518
2225.037109	-114.562462
2223.550781	31.569469
2222.064453	-19.111189
2220.576172	105.076271
2219.089844	94.735550
2217.601563	22.210722
2216.115234	33.725857
2214.626953	-57.244862
2213.138672	1.300261
2211.648438	-34.222008
2210.160156	-66.374664
2208.669922	22.337183
2207.181641	43.881569
2205.691406	-3.382622
2204.201172	-69.084770
2202.710938	-14.004641
2201.218750	12.540606
2199.728516	-22.959715
2198.236328	-46.717800
2196.744141	9.971464
2195.251953	36.474052
2193.759766	41.184513
2192.267578	14.066722
2190.775391	45.564293
2189.281250	38.536804
2187.787109	66.659119
2186.294922	7.745518
2184.800781	-96.325935
2183.304688	-21.367737
2181.810547	11.745505
2180.316406	83.301094
2178.820313	62.871941
2177.324219	42.447159
2175.828125	-81.584572
2174.332031	-105.321373
2172.835938	-7.108222
2171.337891	-80.964249
2169.841797	47.253113
2168.343750	33.508728
2166.845703	1.405753
2165.347656	19.375349
2163.849609	99.066696
2162.351563	-18.115398
2160.851563	26.518383
2159.353516	-0.567808
2157.853516	-7.643523
2156.353516	18.615362
2154.853516	39.860470
2153.353516	34.435806
2151.851563	67.319984
2150.351563	21.914211
2148.849609	-20.148767
2147.347656	49.339714
2145.845703	43.897984
2144.343750	66.743820
2142.839844	-55.170303
2141.337891	42.531960
2139.833984	-62.704674
2138.330078	136.376816
2136.826172	12.869964
2135.322266	-30.811901
2133.818359	124.926697
2132.314453	31.391195
2130.808594	-2.314607
2129.302734	93.525330
2127.796875	11.662725
2126.291016	-90.091125
2124.785156	-50.732304
2123.279297	-3.096244
2121.771484	-1.937810
2120.263672	-2.442062
2118.757813	45.144672
2117.250000	-3.458834
2115.740234	57.359234
2114.232422	76.717552
2112.724609	-19.927078
2111.214844	55.757122
2109.705078	3.868566
2108.195313	13.269816
2106.685547	-33.629200
2105.175781	22.118549
2103.664063	-4.912001
2102.154297	-18.695629
2100.642578	41.965851
2099.130859	14.937479
2097.619141	42.487576
2096.107422	73.329781
2094.595703	-34.695560
2093.082031	-35.259628
2091.570313	40.182369
2090.056641	-36.394810
2088.542969	34.053097
2087.029297	-22.682642
2085.513672	-82.702667
2084.000000	2.557878
2082.484375	-42.596458
2080.968750	77.262390
2079.455078	-61.923328
2077.937500	79.323425
2076.421875	47.368904
2074.906250	-2.711047
2073.388672	4.915040
2071.873047	1.000787
2070.355469	-40.812630
2068.837891	80.471245
2067.320313	71.591919
2065.800781	31.424789
2064.283203	17.613649
2062.763672	23.554770
2061.244141	26.198963
2059.724609	9.095562
2058.205078	39.699905
2056.685547	2.858931
2055.164063	97.571793
2053.644531	45.932030
2052.123047	-22.127993
2050.601563	49.517120
2049.080078	-18.522020
2047.558594	-83.251259
2046.035156	77.035820
2044.513672	50.072685
2042.990234	31.323889
2041.466797	-21.887646
2039.943359	13.531851
2038.419922	40.730587
2036.896484	-2.617102
2035.371094	-50.872208
2033.847656	4.188524
2032.322266	6.764479
2030.796875	-21.803827
2029.271484	-17.590837
2027.744141	86.551971
2026.218750	72.718231
2024.691406	-8.257686
2023.164063	35.231358
2021.636719	-45.709396
2020.109375	94.325829
2018.582031	-20.961771
2017.054688	-3.691565
2015.525391	38.101357
2013.996094	45.533176
2012.468750	-30.421766
2010.939453	11.343324
2009.408203	-51.508942
2007.878906	122.590233
2006.347656	-18.678898
2004.818359	65.505653
2003.287109	45.141033
2001.755859	50.904476
2000.224609	-109.832413
1998.691406	88.526360
1997.160156	33.899212
1995.626953	42.910980
1994.093750	-28.001337
1992.560547	-97.256416
1991.027344	-86.600082
1989.494141	-56.390724
1987.960938	56.916370
1986.425781	-10.681456
1984.890625	-32.642693
1983.355469	43.122280
1981.820313	56.977989
1980.285156	52.917866
1978.750000	-17.876917
1977.212891	-26.808435
1975.675781	-86.175499
1974.138672	26.905949
1972.601563	11.458879
1971.064453	20.406168
1969.527344	-47.058556
1967.988281	44.782978
1966.451172	56.961823
1964.912109	138.992874
1963.373047	24.442804
1961.833984	47.978397
1960.292969	50.392632
1958.753906	43.065926
1957.212891	9.770002
1955.671875	4.071554
1954.130859	-8.115822
1952.589844	-65.716660
1951.048828	-9.777324
1949.505859	5.601361
1947.964844	92.299591
1946.421875	2.301965
1944.878906	12.802622
1943.335938	-7.483567
1941.792969	32.166325
1940.248047	-15.650540
1938.705078	70.934090
1937.160156	-103.134018
1935.615234	10.940352
1934.070313	-20.658436
1932.525391	-66.805115
1930.978516	35.863338
1929.433594	-68.493301
1927.886719	97.183754
1926.339844	-26.544640
1924.792969	-69.419907
1923.246094	-4.024546
1921.699219	-43.658573
1920.150391	-23.522188
1918.601563	64.424706
1917.052734	39.324722
1915.503906	80.411530
1913.955078	-36.668121
1912.406250	93.154167
1910.855469	26.121550
1909.306641	13.951659
1907.755859	-64.326500
1906.205078	-18.440880
1904.654297	0.024559
1903.101563	44.262680
1901.550781	-11.405606
1899.998047	8.652954
1898.447266	96.344231
1896.894531	-31.761024
1895.339844	86.482735
1893.787109	-1.332836
1892.234375	-40.838844
1890.679688	-6.326314
1889.125000	20.129387
1887.570313	-45.091583
1886.015625	-23.463554
1884.460938	7.800125
1882.906250	19.764183
1881.349609	-11.663662
1879.792969	1.902885
1878.236328	18.676018
1876.679688	40.259525
1875.123047	-61.791622
1873.566406	41.663723
1872.007813	130.630203
1870.449219	-51.606480
1868.890625	80.656113
1867.332031	28.418009
1865.773438	-7.763138
1864.214844	28.215246
1862.654297	-59.245949
1861.093750	44.033760
1859.533203	92.795135
1857.972656	-18.654184
1856.412109	-122.049744
1854.851563	21.189535
1853.289063	60.308311
1851.728516	1.777353
1850.166016	39.283924
1848.603516	3.178664
1847.039063	51.865406
1845.476563	34.964329
1843.914063	91.622185
1842.349609	65.126602
1840.785156	67.411713
1839.220703	53.716805
1837.656250	8.075375
1836.091797	-40.741550
1834.525391	31.830530
1832.958984	10.171046
1831.392578	10.869637
1829.826172	46.680733
1828.259766	52.160286
1826.693359	64.019516
1825.125000	5.692070
1823.558594	78.155739
1821.990234	51.738491
1820.421875	50.837307
1818.853516	-85.527252
1817.285156	18.765203
1815.714844	38.581940
1814.144531	-16.465942
1812.576172	9.724095
1811.005859	-51.661308
1809.433594	-42.985630
1807.863281	-15.213267
1806.292969	38.006447
1804.720703	-67.872284
1803.148438	34.640511
1801.576172	65.558067
1800.003906	-48.205505
1798.431641	-10.922878
1796.857422	19.987604
1795.285156	50.888893
1793.710938	-75.481285
1792.136719	-11.220610
1790.562500	81.596260
1788.986328	20.387899
1787.412109	-23.332132
1785.835938	31.349218
1784.259766	-99.611298
1782.683594	20.100813
1781.107422	-4.547116
1779.531250	-45.037952
1777.955078	126.907158
1776.376953	35.691933
1774.798828	-44.391445
1773.220703	24.477627
1771.642578	3.038446
1770.064453	44.953171
1768.484375	15.605283
1766.906250	32.178642
1765.326172	45.580311
1763.746094	84.295547
1762.166016	23.335146
1760.583984	95.256187
1759.003906	18.511057
1757.421875	16.103771
1755.841797	-65.329468
1754.259766	-32.945999
1752.675781	-19.534576
1751.093750	-75.628708
1749.511719	-2.191548
1747.927734	-18.786825
1746.343750	-10.113157
1744.759766	64.850983
1743.175781	-29.061586
1741.591797	-39.313957
1740.005859	112.909576
1738.421875	-18.794216
1736.835938	46.648899
1735.250000	41.130596
1733.664063	43.498337
1732.076172	4.897187
1730.490234	73.446831
1728.902344	-7.664930
1727.316406	-71.414871
1725.728516	123.073547
1724.138672	56.178577
1722.550781	-43.732609
1720.962891	24.763165
1719.373047	-12.168232
1717.783203	-44.361748
1716.193359	8.377250
1714.603516	48.521465
1713.013672	17.919830
1711.421875	106.769249
1709.830078	-2.384883
1708.240234	70.734001
1706.648438	68.438637
1705.054688	28.461761
1703.462891	43.454338
1701.871094	-20.033674
1700.277344	18.508890
1698.683594	27.230892
1697.089844	26.542299
1695.496094	74.475632
1693.902344	54.972107
1692.306641	57.426468
1690.710938	45.779293
1689.117188	13.772887
1687.521484	53.849304
1685.923828	43.790112
1684.328125	123.004646
1682.730469	103.551720
1681.134766	48.110645
1679.537109	102.249046
1677.939453	126.640846
1676.341797	43.085155
1674.742188	31.514904
1673.144531	98.144249
1671.544922	78.761841
1669.945313	56.267143
1668.345703	116.614548
1666.746094	103.507721
1665.144531	115.404541
1663.544922	36.719757
1661.943359	98.604897
1660.341797	76.168365
1658.740234	-8.685975
1657.138672	45.386410
1655.535156	-47.216373
1653.933594	147.241867
1652.330078	37.514065
1650.726563	63.490330
1649.123047	92.580132
1647.519531	92.051590
1645.914063	44.780888
1644.310547	-27.388468
1642.705078	-101.080368
1641.099609	-43.923584
1639.494141	63.039219
1637.888672	93.689438
1636.281250	15.390874
1634.675781	55.388519
1633.068359	16.036381
1631.460938	102.690254
1629.853516	100.679543
1628.244141	78.464523
1626.636719	6.527651
1625.027344	40.302120
1623.417969	38.334362
1621.808594	86.083900
1620.199219	45.295662
1618.589844	61.984104
1616.978516	111.273155
1615.369141	98.466408
1613.757813	56.187397
1612.146484	-20.198437
1610.535156	44.609993
1608.921875	-54.989178
1607.310547	48.578304
1605.697266	45.147251
1604.083984	68.073540
1602.470703	15.071086
1600.857422	19.420221
1599.242188	34.616806
1597.628906	40.525490
1596.013672	69.662857
1594.398438	86.413284
1592.783203	-34.571575
1591.167969	2.325772
1589.550781	-31.945129
1587.935547	-12.059077
1586.318359	83.596107
1584.701172	61.724560
1583.083984	18.231844
1581.466797	96.849457
1579.847656	47.204266
1578.230469	17.671621
1576.611328	63.834549
1574.992188	9.623182
1573.373047	18.737280
1571.751953	60.268116
1570.132813	97.162949
1568.511719	39.941200
1566.890625	101.522690
1565.269531	79.812256
1563.648438	88.957413
1562.027344	48.780224
1560.404297	14.793694
1558.783203	-11.463550
1557.160156	113.271996
1555.537109	-23.871214
1553.912109	108.533691
1552.289063	73.080917
1550.664063	102.300888
1549.041016	14.560953
1547.416016	-19.281490
1545.791016	94.576752
1544.164063	49.985962
1542.539063	31.565567
1540.912109	8.550267
1539.287109	54.721794
1537.660156	59.393269
1536.033203	61.000866
1534.404297	-126.316238
1532.777344	88.817810
1531.148438	9.073432
1529.519531	73.672134
1527.890625	67.655228
1526.261719	81.600159
1524.632813	77.140755
1523.001953	77.295197
1521.373047	57.526073
1519.742188	-15.884691
1518.111328	14.980120
1516.478516	50.440750
1514.847656	18.481382
1513.214844	1.865269
1511.583984	-33.110470
1509.951172	91.189781
1508.318359	-6.535347
1506.683594	-9.310259
1505.050781	-7.480778
1503.416016	55.558319
1501.783203	3.859342
1500.148438	-20.278095
1498.511719	56.520855
1496.876953	84.382385
1495.242188	23.598568
1493.605469	7.165618
1491.968750	-65.774139
1490.332031	82.804237
1488.695313	115.273605
1487.058594	82.090294
1485.419922	61.144890
1483.781250	21.907040
1482.142578	19.317940
1480.503906	15.217234
1478.865234	-10.221453
1477.226563	22.308073
1475.585938	15.198200
1473.945313	82.791512
1472.304688	49.791672
1470.664063	-45.648701
1469.023438	-26.790550
1467.380859	-65.799759
1465.740234	47.484180
1464.097656	73.961906
1462.455078	48.693909
1460.812500	64.534966
1459.167969	22.571215
1457.525391	-61.950802
1455.880859	64.956375
1454.236328	109.722290
1452.591797	3.994453
1450.947266	53.340759
1449.302734	55.577164
1447.656250	19.848038
1446.009766	57.050617
1444.363281	42.622684
1442.716797	37.323544
1441.070313	42.665688
1439.421875	133.001816
1437.775391	59.453785
1436.126953	-0.397041
1434.478516	-49.592751
1432.830078	69.552483
1431.179688	8.263751
1429.531250	101.609283
1427.880859	-64.189011
1426.230469	-7.198706
1424.580078	46.752846
1422.929688	-38.625347
1421.279297	106.181633
1419.626953	-63.913246
1417.974609	80.867813
1416.322266	57.648869
1414.669922	-4.877922
1413.017578	79.344849
1411.363281	31.990713
1409.710938	-3.234576
1408.056641	87.025085
1406.402344	-46.394512
1404.748047	-2.971130
1403.091797	2.685409
1401.437500	74.804604
1399.781250	-70.520210
1398.125000	119.363564
1396.468750	-56.065300
1394.812500	-104.651985
1393.154297	118.355591
1391.498047	-46.359413
1389.839844	51.406647
1388.181641	-28.762835
1386.523438	-35.021164
1384.865234	-56.332428
1383.205078	20.320221
1381.544922	-49.168621
1379.884766	-28.245710
1378.224609	4.730323
1376.564453	-51.115993
1374.904297	49.614285
1373.242188	-94.973022
1371.580078	-21.325960
1369.919922	41.775330
1368.255859	-48.531300
1366.593750	29.616814
1364.931641	-4.997966
1363.267578	-60.623222
1361.603516	-69.627525
1359.939453	-12.510125
1358.275391	-81.569847
1356.611328	-30.449495
1354.945313	-18.369720
1353.279297	-18.287804
1351.613281	22.329954
1349.947266	-27.079670
1348.281250	-52.450996
1346.615234	-44.800133
1344.947266	-35.635948
1343.279297	51.496761
1341.611328	3.712015
1339.943359	-2.077832
1338.275391	76.051056
1336.605469	-100.480179
1334.935547	22.597301
1333.267578	48.314461
1331.597656	-39.730980
1329.925781	-15.473531
1328.255859	-46.576180
1326.583984	9.120675
1324.912109	-62.324699
1323.240234	-64.935982
1321.568359	-69.025444
1319.896484	13.598575
1318.224609	25.965115
1316.550781	-12.456361
1314.876953	-19.475618
1313.203125	-74.267715
1311.529297	62.106312
1309.853516	19.296654
1308.179688	-48.853775
1306.503906	-43.838257
1304.828125	-80.582886
1303.152344	-5.425317
1301.474609	81.648750
1299.798828	16.620461
1298.121094	57.474751
1296.443359	13.377708
1294.765625	-11.313984
1293.087891	14.671142
1291.410156	70.449280
1289.730469	10.072945
1288.050781	112.014526
1286.371094	120.156097
1284.691406	95.570885
1283.011719	69.524483
1281.332031	33.092319
1279.650391	-3.306533
1277.968750	24.262365
1276.287109	54.808758
1274.605469	16.990101
1272.921875	-78.746643
1271.240234	11.275589
1269.556641	68.600426
1267.873047	35.331890
1266.189453	88.205299
1264.505859	-28.146809
1262.820313	5.458980
1261.134766	-48.475212
1259.451172	50.421810
1257.765625	-4.950351
1256.078125	-91.420044
1254.392578	-8.834506
1252.705078	67.805336
1251.019531	6.612127
1249.332031	46.209034
1247.642578	1.376106
1245.955078	1.003719
1244.267578	-28.965313
1242.578125	-18.935272
1240.888672	2.946088
1239.199219	48.508812
1237.509766	94.067802
1235.818359	-42.297756
1234.128906	34.345963
1232.437500	37.053856
1230.746094	-17.870268
1229.054688	57.290829
1227.363281	40.831543
1225.669922	80.529640
1223.976563	31.614632
1222.283203	-113.239700
1220.589844	96.279350
1218.896484	19.395609
1217.203125	-72.196136
1215.507813	84.118889
1213.812500	22.084980
1212.117188	-50.230038
1210.421875	-10.448033
1208.726563	-38.473602
1207.029297	69.113785
1205.332031	-13.400658
1203.636719	57.335617
1201.937500	5.820210
1200.240234	76.555176
1198.542969	-20.552858
1196.843750	82.571274
1195.144531	90.015671
1193.445313	44.507084
1191.746094	-30.385696
1190.046875	66.829712
1188.345703	-27.117895
1186.644531	80.377563
1184.943359	111.418816
1183.242188	11.687935
1181.541016	138.248093
1179.837891	97.335236
1178.136719	52.046158
1176.433594	56.709515
1174.730469	76.063118
1173.027344	102.760468
1171.322266	66.374504
1169.619141	52.018452
1167.914063	163.809708
1166.208984	74.691307
1164.503906	20.807487
1162.796875	117.922905
1161.091797	206.216293
1159.384766	112.828400
1157.677734	185.004196
1155.970703	93.152290
1154.263672	156.544601
1152.554688	104.289612
1150.847656	72.555649
1149.138672	150.587128
1147.429688	126.200935
1145.720703	126.701218
1144.009766	160.848633
1142.300781	108.739555
1140.589844	205.750885
1138.878906	127.381088
1137.167969	183.466263
1135.455078	172.353821
1133.744141	279.543579
1132.031250	195.439865
1130.318359	165.394119
1128.605469	193.750519
1126.892578	136.020691
1125.179688	187.737030
1123.464844	182.566605
1121.750000	264.900787
1120.035156	172.269577
1118.320313	241.477783
1116.605469	287.352966
1114.888672	196.273224
1113.171875	185.358109
1111.455078	288.051422
1109.738281	214.537628
1108.021484	277.901611
1106.302734	200.082306
1104.585938	315.828064
1102.867188	284.609375
1101.148438	292.685638
1099.429688	246.966934
1097.708984	211.459579
1095.990234	242.836670
1094.269531	261.136414
1092.548828	304.138916
1090.828125	307.914093
1089.105469	282.656921
1087.384766	258.869873
1085.662109	245.269043
1083.939453	262.162994
1082.216797	239.882477
1080.492188	198.766205
1078.769531	221.493134
1077.044922	267.425903
1075.320313	153.871613
1073.595703	175.178528
1071.871094	245.758911
1070.146484	206.204956
1068.419922	194.204361
1066.693359	263.320984
1064.966797	110.882584
1063.240234	175.664246
1061.513672	195.560883
1059.785156	187.969208
1058.056641	187.623688
1056.328125	125.092583
1054.599609	199.976135
1052.871094	177.969574
1051.140625	202.240646
1049.412109	102.222588
1047.681641	138.076248
1045.951172	150.810883
1044.218750	166.441254
1042.488281	101.209572
1040.755859	150.064590
1039.023438	149.834412
1037.291016	211.662247
1035.558594	146.514557
1033.826172	228.526718
1032.091797	177.844391
1030.357422	118.541473
1028.623047	201.976517
1026.888672	102.357178
1025.154297	105.088387
1023.417969	172.654205
1021.681641	91.855293
1019.945313	186.768723
1018.208984	139.127274
1016.472656	79.999237
1014.734375	179.197296
1012.998047	55.359436
1011.259766	76.861893
1009.521484	108.428871
1007.783203	85.353981
1006.042969	161.484375
1004.302734	86.688042
1002.564453	118.252876
1000.824219	152.687744
999.082031	-9.645122
997.341797	136.816711
995.599609	77.933708
993.859375	176.961395
992.117188	143.937057
990.373047	165.454803
988.630859	108.074356
986.886719	82.277817
985.144531	108.109726
983.400391	103.837364
981.656250	80.941208
979.910156	72.393005
978.166016	65.282158
976.419922	56.751255
974.673828	217.196518
972.927734	21.104887
971.181641	107.070526
969.433594	67.079842
967.687500	39.983204
965.939453	82.995979
964.191406	63.071251
962.441406	171.843643
960.693359	34.700607
958.943359	71.982780
957.195313	103.533401
955.445313	123.650406
953.693359	88.065407
951.943359	148.167023
950.191406	94.040558
948.441406	18.526794
946.689453	-16.990126
944.935547	71.639610
943.183594	90.336838
941.431641	43.428848
939.677734	103.482918
937.923828	50.900829
936.169922	16.871696
934.414063	8.512127
932.660156	172.527359
930.904297	24.566229
929.148438	120.167465
927.392578	94.720139
925.636719	33.702686
923.878906	52.408234
922.123047	125.167740
920.365234	72.728928
918.607422	78.621750
916.849609	118.637856
915.089844	60.558918
913.330078	5.349199
911.572266	146.244690
909.812500	62.632286
908.050781	108.307571
906.291016	80.121758
904.529297	67.570145
902.767578	154.381409
901.005859	62.354786
899.244141	55.494347
897.482422	44.383026
895.718750	16.263922
893.957031	66.134979
892.193359	18.179991
890.427734	96.384476
888.664063	95.203903
886.898438	20.364542
885.134766	160.834076
883.369141	108.670563
881.603516	-46.816757
879.835938	-19.645277
878.070313	41.473011
876.302734	77.103233
874.535156	97.159142
872.767578	43.669235
871.000000	32.618801
869.230469	109.219200
867.460938	-10.657801
865.693359	30.590523
863.921875	-39.770519
862.152344	-47.961918
860.382813	51.165676
858.611328	-13.507671
856.839844	115.213791
855.068359	46.320240
853.296875	7.083842
851.523438	-25.079699
849.751953	44.302502
847.978516	-18.874138
846.205078	33.564182
844.431641	35.244370
842.656250	39.745205
840.880859	-0.835184
839.107422	96.620132
837.332031	-11.545195
835.554688	-74.611008
833.779297	-12.388295
832.001953	-33.213120
830.226563	-21.675764
828.447266	-38.267857
826.669922	-28.138460
824.892578	-1.142880
823.113281	49.740280
821.333984	-44.151798
819.554688	1.096141
817.775391	6.990173
815.996094	36.756104
814.214844	6.134067
812.435547	21.846355
810.654297	13.694800
808.871094	-26.725166
807.089844	-76.953445
805.306641	-14.946757
803.525391	13.371711
801.742188	-24.214540
799.958984	57.360485
798.173828	-22.260258
796.390625	13.039626
794.605469	38.520920
792.820313	6.568964
791.035156	-47.773762
789.248047	50.498974
787.462891	78.743599
785.675781	-18.957848
783.888672	9.290994
782.101563	47.316788
780.314453	5.616607
778.525391	38.035789
776.736328	-34.394283
774.947266	6.401595
773.158203	-1.723046
771.369141	66.982788
769.578125	60.246490
767.789063	14.412136
765.998047	-34.191460
764.207031	-28.344404
762.414063	24.945114
760.623047	-27.818417
758.830078	39.393028
757.037109	50.795696
755.244141	31.520973
753.451172	47.099644
751.656250	-7.002853
749.863281	68.484863
748.068359	-21.817663
746.271484	13.259530
744.476563	3.762012
742.681641	-48.885796
740.884766	34.882607
739.087891	-38.618336
737.291016	-53.660553
735.494141	71.776764
733.695313	-18.369047
731.896484	12.473559
730.097656	-23.414600
728.298828	21.310522
726.500000	-6.228942
724.701172	20.415064
722.900391	-47.382126
721.099609	-112.373169
719.298828	23.940544
717.496094	17.253920
715.695313	-13.021642
713.892578	-0.276649
712.089844	16.623713
710.287109	-46.906666
708.484375	-71.592560
706.679688	-40.823280
704.876953	-75.199120
703.072266	13.745361
701.267578	-70.486351
699.460938	-38.353382
697.656250	-17.313683
695.849609	-30.883497
694.042969	64.881348
692.236328	-51.084984
690.429688	25.278650
688.621094	-13.174869
686.812500	-19.808245
685.005859	-19.529346
683.195313	29.131926
681.386719	29.407091
679.578125	25.538940
677.767578	-22.519773
675.957031	34.391933
674.146484	-34.353024
672.333984	-98.921021
670.523438	-55.823456
668.710938	-32.054077
666.898438	19.295179
665.085938	-56.251648
663.273438	-10.429545
661.458984	-87.306244
659.644531	-62.160202
657.830078	55.296303
656.015625	25.302652
654.201172	-0.542639
652.384766	8.055265
650.570313	-24.651365
648.753906	-5.033431
646.935547	-54.220921
645.119141	-23.590969
643.300781	23.539499
641.484375	22.517950
639.666016	27.004763
637.847656	36.992714
636.027344	-36.847107
634.208984	-4.856215
632.388672	93.066719
630.568359	20.651278
628.748047	-2.295998
626.925781	-32.087631
625.105469	-9.710194
623.283203	1.689890
621.460938	72.082176
619.636719	45.070423
617.814453	55.097717
615.990234	24.001072
614.167969	-12.562340
612.343750	37.235977
610.517578	-36.285686
608.693359	-12.516336
606.867188	16.731937
605.041016	55.559025
603.214844	50.571522
601.388672	36.013729
599.562500	32.416573
597.734375	26.096775
595.906250	116.895164
594.078125	51.777729
592.250000	34.545891
590.419922	44.670464
588.591797	75.293068
586.761719	-12.945348
584.931641	-21.912989
583.099609	63.364166
581.269531	74.882416
579.437500	44.093552
577.605469	89.752388
575.773438	170.876434
573.941406	107.377449
572.107422	91.654808
570.273438	110.037766
568.439453	147.508636
566.605469	101.834930
564.771484	63.005077
562.935547	118.209023
561.101563	108.018044
559.265625	153.678329
557.427734	38.684460
555.591797	117.030983
553.753906	66.078888
551.917969	103.592720
550.080078	98.938881
548.240234	88.863892
546.402344	50.248669
544.562500	53.807827
542.724609	61.451038
540.884766	109.870995
539.042969	44.176521
537.203125	83.098495
535.361328	31.044027
533.519531	86.274254
531.677734	51.914070
529.835938	92.216278
527.994141	-18.076300
526.150391	58.878819
524.306641	2.918374
522.462891	-73.340080
520.619141	-27.556334
518.773438	-27.849766
516.927734	27.422207
515.082031	6.827566
513.236328	-11.034217
511.390625	-53.245068
509.542969	22.354986
507.697266	18.081562
505.849609	49.011112
504.000000	8.248016
502.152344	17.557251
500.302734	-6.922886
498.455078	-74.642326
496.605469	9.070959
494.753906	-0.473578
492.904297	-85.660553
491.052734	-7.349336
489.203125	34.476753
487.351563	-12.803812
485.498047	74.942360
483.646484	-27.625093
481.792969	18.292061
479.939453	-35.617348
478.085938	45.379860
476.232422	19.837162
474.376953	-31.286184
472.523438	-14.986520
470.667969	-16.189590
468.812500	33.817719
466.955078	-38.742363
465.099609	63.798470
463.242188	11.491615
461.384766	11.718563
459.527344	25.419209
457.667969	32.408348
455.810547	-23.814358
453.951172	-50.404915
452.091797	15.804915
450.232422	57.805771
448.371094	-9.048701
446.511719	-3.306396
444.650391	3.797936
442.789063	74.038124
440.927734	-15.523469
439.064453	-7.025830
437.201172	2.826031
435.337891	-35.617943
433.474609	11.830310
431.611328	6.963586
429.748047	-56.888836
427.882813	54.935703
426.017578	27.325924
424.152344	-28.399183
422.285156	5.685863
420.419922	-25.870689
418.552734	-14.539927
416.685547	-20.606350
414.818359	-7.916553
412.949219	30.214098
411.082031	-10.607982
409.212891	0.776912
407.343750	-3.880446
405.472656	34.269604
403.603516	38.987881
401.732422	34.364655
399.861328	68.505219
397.990234	-2.899918
396.119141	43.274803
394.246094	-37.416279
392.375000	68.842140
390.501953	-33.158127
388.628906	-4.325960
386.753906	21.838118
384.880859	98.680183
383.005859	8.799903
381.130859	-7.702807
379.253906	-12.190454
377.378906	-31.336714
375.501953	-35.808334
373.626953	-45.608509
371.748047	8.537643
369.871094	-17.235912
367.994141	-35.009201
366.115234	-16.832489
364.236328	13.312172
362.357422	-37.709629
360.478516	8.385025
358.597656	-16.015749
356.716797	35.371910
354.835938	-12.956497
352.955078	10.492191
351.074219	31.267754
349.191406	22.810032
347.308594	3.724575
345.425781	40.403378
343.542969	-2.589236
341.658203	71.220001
339.775391	-56.700142
337.890625	109.922615
336.005859	5.902238
334.119141	-25.153660
332.234375	41.882275
330.347656	2.846784
328.460938	-44.140186
326.574219	1.609231
324.685547	3.614509
322.798828	-19.568218
320.910156	-12.309123
319.021484	1.540145
317.132813	41.823433
315.242188	10.622782
313.351563	44.221050
311.460938	-21.409472
309.570313	-6.391866
307.679688	61.459835
305.787109	24.847448
303.896484	-21.039282
302.003906	4.393453
300.111328	-5.883863
298.216797	-46.562920
296.322266	-21.262817
294.429688	38.290920
292.535156	-28.898018
290.638672	0.201322
288.744141	14.723584
286.847656	67.431061
284.951172	-17.047976
283.054688	27.622229
281.158203	19.502729
279.259766	45.583618
277.361328	-31.150684
275.462891	36.940216
273.564453	-10.927523
271.666016	-18.039371
269.765625	-21.269348
267.865234	8.319605
265.964844	50.971664
264.064453	35.658501
262.162109	-69.136398
260.261719	-26.744705
258.359375	16.857565
256.457031	87.942635
254.552734	10.460470
252.650391	-25.058979
250.746094	2.369091
248.841797	41.497673
246.937500	39.815559
245.031250	34.091732
243.126953	21.696558
241.220703	-40.647396
239.314453	1.825341
237.406250	44.160019
235.500000	45.715645
233.591797	-7.895063
231.683594	13.066274
229.775391	14.234914
227.865234	2.169897
225.957031	-32.291412
224.046875	5.113131
222.136719	-3.454006
220.226563	-25.255213
218.314453	-55.052486
216.402344	-9.143312
214.490234	14.351203
212.578125	21.978340
210.666016	3.288613
208.751953	-48.238148
206.839844	13.731449
204.925781	8.875088
203.009766	-60.156139
201.095703	10.338290
