#Wave		#Intensity
4001.644531	2804.046387
4000.500000	2845.539307
3999.354492	2617.939941
3998.209961	2800.834961
3997.064453	2732.659424
3995.918945	2751.798340
3994.772461	2725.111572
3993.626953	2700.615723
3992.480469	2691.396240
3991.333984	2782.489014
3990.187500	2753.635498
3989.040039	2818.525146
3987.893555	2706.856934
3986.746094	2671.495605
3985.598633	2797.365967
3984.451172	2766.357422
3983.302734	2689.625244
3982.154297	2717.438232
3981.006836	2725.647461
3979.857422	2749.090088
3978.708984	2711.589355
3977.560547	2693.684814
3976.411133	2714.944580
3975.261719	2742.721436
3974.112305	2685.677246
3972.961914	2752.585449
3971.811523	2723.820068
3970.662109	2621.167969
3969.511719	2698.916016
3968.360352	2659.312744
3967.209961	2780.469727
3966.058594	2764.755859
3964.907227	2690.418945
3963.755859	2713.806152
3962.604492	2745.867188
3961.452148	2680.255127
3960.299805	2705.800781
3959.147461	2670.592285
3957.995117	2635.396484
3956.841797	2676.116455
3955.689453	2697.307129
3954.536133	2733.664795
3953.382813	2696.315430
3952.228516	2702.321045
3951.075195	2775.490479
3949.920898	2645.004639
3948.766602	2715.991699
3947.612305	2776.125244
3946.458008	2782.109863
3945.302734	2699.340820
3944.147461	2631.751953
3942.992188	2596.645752
3941.836914	2719.486084
3940.680664	2656.256592
3939.525391	2634.141113
3938.369141	2700.687256
3937.211914	2730.456543
3936.055664	2671.594238
3934.898438	2692.713379
3933.742188	2700.860596
3932.584961	2696.042969
3931.426758	2656.668701
3930.269531	2630.265625
3929.111328	2638.417969
3927.953125	2661.677979
3926.794922	2568.380859
3925.636719	2671.487549
3924.477539	2668.838135
3923.319336	2717.960205
3922.160156	2717.459717
3921.000000	2589.736572
3919.840820	2574.168213
3918.680664	2666.381592
3917.520508	2601.236572
3916.360352	2626.614258
3915.200195	2658.445313
3914.040039	2629.954590
3912.878906	2694.076172
3911.717773	2590.229004
3910.556641	2682.319824
3909.394531	2686.130127
3908.233398	2562.973877
3907.071289	2693.746338
3905.909180	2755.633545
3904.746094	2608.873779
3903.583984	2601.941895
3902.420898	2665.961182
3901.257813	2596.683594
3900.094727	2639.188232
3898.931641	2610.767578
3897.767578	2618.879639
3896.603516	2672.096436
3895.439453	2684.489258
3894.275391	2608.842529
3893.111328	2576.159424
3891.946289	2665.833008
3890.781250	2684.655518
3889.616211	2600.481445
3888.451172	2565.678223
3887.285156	2550.191162
3886.119141	2669.808350
3884.953125	2673.604004
3883.787109	2595.939697
3882.620117	2616.893066
3881.454102	2571.410400
3880.287109	2525.944580
3879.120117	2598.308105
3877.952148	2512.162354
3876.785156	2740.813477
3875.617188	2616.137451
3874.449219	2724.818359
3873.281250	2598.050781
3872.112305	2469.190430
3870.944336	2579.977295
3869.775391	2639.389893
3868.606445	2549.085693
3867.436523	2606.343506
3866.267578	2605.862305
3865.097656	2549.810791
3863.927734	2651.911865
3862.757813	2527.503662
3861.587891	2552.670410
3860.416992	2616.270752
3859.246094	2615.787354
3858.075195	2566.200439
3856.904297	2548.649658
3855.732422	2567.386230
3854.560547	2532.771484
3853.388672	2547.237061
3852.216797	2629.952148
3851.044922	2550.560547
3849.872070	2579.939697
3848.699219	2549.617676
3847.526367	2480.941895
3846.353516	2595.557129
3845.179688	2618.513916
3844.005859	2526.430664
3842.832031	2611.156250
3841.658203	2655.391113
3840.484375	2531.416260
3839.309570	2609.707764
3838.134766	2543.249512
3836.959961	2581.080322
3835.785156	2527.416504
3834.609375	2503.551270
3833.434570	2630.688232
3832.258789	2502.625000
3831.082031	2508.539551
3829.906250	2459.189209
3828.729492	2643.617188
3827.552734	2488.024902
3826.375977	2462.072754
3825.199219	2640.025879
3824.021484	2507.878906
3822.844727	2575.354736
3821.666992	2562.141602
3820.489258	2572.278809
3819.310547	2597.266113
3818.131836	2467.370117
3816.954102	2572.971436
3815.774414	2542.804199
3814.595703	2485.083008
3813.416992	2541.862549
3812.237305	2503.239014
3811.057617	2530.324951
3809.877930	2546.806641
3808.697266	2470.072021
3807.516602	2511.974854
3806.336914	2511.509277
3805.155273	2479.285400
3803.974609	2485.176514
3802.792969	2575.723633
3801.612305	2503.300293
3800.430664	2534.571289
3799.248047	2438.914063
3798.066406	2482.874512
3796.883789	2507.788330
3795.701172	2439.672119
3794.518555	2576.610840
3793.335938	2510.620361
3792.152344	2478.460938
3790.968750	2594.190918
3789.785156	2437.411377
3788.601563	2441.182861
3787.417969	2411.171143
3786.233398	2395.947021
3785.048828	2473.593994
3783.864258	2582.864746
3782.678711	2455.798096
3781.494141	2457.451904
3780.308594	2501.285156
3779.123047	2505.038330
3777.937500	2523.547363
3776.750977	2424.010986
3775.564453	2436.205811
3774.377930	2473.680664
3773.191406	2629.114502
3772.004883	2512.781494
3770.817383	2484.938721
3769.629883	2349.726074
3768.442383	2492.436523
3767.254883	2496.183350
3766.066406	2558.849365
3764.878906	2419.515137
3763.690430	2442.204590
3762.500977	2458.576416
3761.312500	2554.846436
3760.123047	2432.434814
3758.933594	2492.940186
3757.744141	2408.413818
3756.554688	2399.561768
3755.364258	2470.543213
3754.173828	2459.582275
3752.983398	2410.824707
3751.792969	2420.875000
3750.602539	2395.234131
3749.411133	2453.556885
3748.219727	2482.479492
3747.028320	2448.448975
3745.835938	2359.891113
3744.644531	2472.706299
3743.452148	2440.793213
3742.259766	2480.173096
3741.067383	2372.809814
3739.874023	2481.346680
3738.680664	2455.741211
3737.487305	2478.329102
3736.293945	2450.638916
3735.100586	2433.429688
3733.906250	2403.664307
3732.711914	2507.886963
3731.517578	2509.513428
3730.323242	2385.582275
3729.127930	2473.011963
3727.932617	2351.225342
3726.737305	2407.257080
3725.541992	2496.724609
3724.345703	2372.910400
3723.150391	2470.712158
3721.954102	2418.005127
3720.757813	2423.823486
3719.560547	2490.224121
3718.364258	2416.655273
3717.166992	2443.353760
3715.969727	2361.468994
3714.771484	2436.181396
3713.574219	2452.425049
3712.375977	2381.018066
3711.177734	2438.993652
3709.979492	2428.109375
3708.780273	2448.513428
3707.582031	2423.034668
3706.382813	2455.940674
3705.183594	2355.429688
3703.983398	2455.025879
3702.784180	2502.493164
3701.583984	2460.361084
3700.383789	2524.472656
3699.182617	2463.609375
3697.982422	2438.165039
3696.781250	2437.710693
3695.580078	2362.327881
3694.378906	2486.745117
3693.177734	2515.409668
3691.975586	2454.615479
3690.773438	2566.466797
3689.571289	2459.938721
3688.369141	2480.270264
3687.166016	2546.323975
3685.962891	2427.389404
3684.759766	2354.211670
3683.556641	2563.597168
3682.352539	2486.267090
3681.149414	2452.576172
3679.945313	2468.729248
3678.740234	2470.344727
3677.536133	2544.603027
3676.331055	2479.798828
3675.126953	2385.972168
3673.920898	2507.914795
3672.715820	2538.556641
3671.510742	2494.537354
3670.304688	2477.486328
3669.098633	2373.382813
3667.891602	2497.285889
3666.685547	2627.359131
3665.478516	2479.780518
3664.271484	2485.531494
3663.064453	2443.649658
3661.857422	2540.507080
3660.649414	2583.505371
3659.441406	2502.303467
3658.233398	2514.252197
3657.025391	2588.265137
3655.816406	2469.873291
3654.607422	2512.843994
3653.398438	2609.561035
3652.189453	2596.669189
3650.980469	2565.178711
3649.770508	2525.433350
3648.560547	2566.286621
3647.350586	2623.651367
3646.139648	2633.488770
3644.929688	2682.558838
3643.718750	2599.469238
3642.507813	2646.462891
3641.295898	2542.771240
3640.084961	2552.613770
3638.873047	2677.989990
3637.661133	2627.982666
3636.449219	2608.929688
3635.236328	2631.124023
3634.023438	2700.727295
3632.810547	2599.221680
3631.597656	2592.553223
3630.384766	2596.189209
3629.170898	2698.707764
3627.957031	2694.083740
3626.743164	2672.986816
3625.529297	2656.015381
3624.314453	2657.577148
3623.099609	2568.579102
3621.884766	2683.333740
3620.669922	2686.946533
3619.454102	2754.324951
3618.239258	2685.941162
3617.023438	2730.675537
3615.806641	2649.986572
3614.590820	2647.435059
3613.374023	2716.812256
3612.157227	2650.553467
3610.940430	2699.360840
3609.723633	2744.041748
3608.505859	2686.029053
3607.288086	2814.874756
3606.070313	2730.184082
3604.852539	2727.620605
3603.633789	2739.421875
3602.415039	2788.147461
3601.196289	2719.934570
3599.977539	2776.848877
3598.758789	2700.461670
3597.539063	2820.910645
3596.319336	2726.095947
3595.099609	2834.198975
3593.878906	2788.591553
3592.659180	2710.224365
3591.438477	2623.693604
3590.217773	2823.884033
3588.996094	2845.876221
3587.775391	2794.167480
3586.553711	2863.229248
3585.332031	2774.704102
3584.109375	2772.137939
3582.887695	2841.164551
3581.665039	2834.496582
3580.442383	2848.278076
3579.219727	2810.946289
3577.996094	2847.209961
3576.773438	2863.024658
3575.549805	2921.739746
3574.325195	2839.479980
3573.101563	2918.601318
3571.876953	2873.129395
3570.652344	2907.298340
3569.427734	2886.340332
3568.203125	2918.452881
3566.977539	2875.054932
3565.752930	2907.157227
3564.526367	2963.723877
3563.300781	2938.695557
3562.075195	2964.650635
3560.848633	2929.438477
3559.622070	3045.065674
3558.395508	3077.099121
3557.167969	3025.585693
3555.940430	2947.609863
3554.712891	2977.606445
3553.485352	2970.938477
3552.257813	2972.416504
3551.029297	2923.005859
3549.800781	3050.670654
3548.572266	3074.514648
3547.343750	2998.665527
3546.114258	3022.510254
3544.884766	3099.219482
3543.655273	2990.876221
3542.425781	3059.431152
3541.195313	3121.862549
3539.965820	3098.923096
3538.734375	3153.196777
3537.503906	3071.351563
3536.273438	3156.073730
3535.041992	3155.480469
3533.810547	3138.645996
3532.579102	3133.996338
3531.346680	3163.848389
3530.115234	3084.121582
3528.882813	3122.086182
3527.650391	3113.385986
3526.416992	3291.254395
3525.184570	3156.820313
3523.951172	3200.823242
3522.717773	3212.381836
3521.483398	3232.041260
3520.250000	3211.173584
3519.015625	3315.900391
3517.781250	3258.570801
3516.545898	3296.429443
3515.311523	3220.904541
3514.076172	3299.237305
3512.840820	3375.516846
3511.605469	3364.765137
3510.369141	3293.329346
3509.133789	3260.348877
3507.897461	3255.690918
3506.660156	3327.862305
3505.423828	3391.920898
3504.186523	3381.177246
3502.949219	3358.313721
3501.711914	3426.370361
3500.474609	3300.492432
3499.236328	3354.397461
3497.998047	3384.052734
3496.759766	3294.590820
3495.521484	3467.549561
3494.282227	3394.249023
3493.042969	3440.014648
3491.803711	3392.970459
3490.564453	3418.550293
3489.324219	3478.400146
3488.084961	3483.792969
3486.844727	3430.728271
3485.603516	3579.215820
3484.363281	3528.167725
3483.122070	3595.998047
3481.880859	3516.767090
3480.639648	3477.841797
3479.397461	3513.427979
3478.156250	3518.804932
3476.914063	3564.432861
3475.671875	3589.920410
3474.428711	3544.981689
3473.186523	3588.566895
3471.943359	3597.946045
3470.700195	3534.933594
3469.456055	3600.609863
3468.212891	3479.330078
3466.968750	3547.001221
3465.724609	3455.915771
3464.479492	3487.405762
3463.235352	3532.943359
3461.990234	3540.309326
3460.745117	3505.509766
3459.499023	3551.017578
3458.253906	3494.151855
3457.007813	3451.354004
3455.761719	3577.094482
3454.515625	3568.395996
3453.268555	3529.618652
3452.021484	3496.871094
3450.775391	3544.323730
3449.527344	3515.593994
3448.280273	3482.867188
3447.032227	3588.398926
3445.784180	3521.615723
3444.536133	3554.998779
3443.287109	3500.261475
3442.039063	3527.629150
3440.790039	3554.986572
3439.541016	3526.296631
3438.291016	3471.605713
3437.041992	3540.968994
3435.791992	3544.300293
3434.541992	3567.628174
3433.291016	3514.969238
3432.041016	3460.331055
3430.790039	3407.712158
3429.539063	3496.990723
3428.287109	3368.463867
3427.036133	3447.728271
3425.784180	3522.968018
3424.532227	3438.437744
3423.280273	3321.997070
3422.027344	3473.066162
3420.774414	3548.243652
3419.521484	3332.084473
3418.268555	3363.372559
3417.014648	3416.588135
3415.761719	3451.836426
3414.507813	3385.389648
3413.252930	3396.709473
3411.999023	3433.933838
3410.744141	3419.335938
3409.489258	3356.929443
3408.234375	3334.383789
3406.978516	3293.923096
3405.723633	3357.015381
3404.467773	3324.528320
3403.210938	3292.053467
3401.955078	3323.270020
3400.698242	3288.817871
3399.441406	3270.292236
3398.184570	3271.662109
3396.927734	3288.938965
3395.669922	3270.423340
3394.412109	3257.877686
3393.154297	3283.096436
3391.896484	3373.875244
3390.637695	3263.973633
3389.378906	3185.893066
3388.120117	3209.119629
3386.861328	3180.715332
3385.601563	3203.933838
3384.341797	3189.433838
3383.082031	3176.923584
3381.822266	3277.503662
3380.561523	3187.621338
3379.300781	3143.386719
3378.040039	3188.396240
3376.779297	3167.967529
3375.517578	3092.047852
3374.256836	3224.236084
3372.995117	3124.558350
3371.732422	3161.604248
3370.470703	3186.752441
3369.208008	3201.989990
3367.945313	3074.673828
3366.682617	3046.378418
3365.418945	2992.365723
3364.155273	3033.350830
3362.891602	3024.862305
3361.627930	3018.354736
3360.363281	3031.625244
3359.099609	2997.437744
3357.834961	3026.521484
3356.569336	2948.865723
3355.304688	3060.942627
3354.039063	2914.159912
3352.773438	3004.471924
3351.507813	2997.976807
3350.241211	2995.433350
3348.975586	2961.303467
3347.708984	2954.819824
3346.442383	2849.666016
3345.174805	2935.940430
3343.907227	3006.400391
3342.639648	3023.580566
3341.372070	2845.530518
3340.104492	2959.341797
3338.835938	2966.664795
3337.567383	2853.763916
3336.298828	2861.103760
3335.029297	2844.799805
3333.760742	2893.502197
3332.491211	2890.983154
3331.221680	2894.371826
3329.951172	2929.256592
3328.681641	2879.494629
3327.411133	2865.172607
3326.139648	2785.929688
3324.869141	2765.729248
3323.597656	2716.035645
3322.327148	2866.927979
3321.054688	2825.097656
3319.783203	2842.250977
3318.510742	2835.814941
3317.238281	2729.174072
3315.965820	2762.051270
3314.693359	2796.879883
3313.419922	2723.690186
3312.146484	2799.743164
3310.873047	2706.950439
3309.599609	2739.800049
3308.325195	2798.145996
3307.050781	2750.529053
3305.776367	2753.928711
3304.501953	2800.471680
3303.226563	2743.077393
3301.951172	2626.893555
3300.675781	2718.513672
3299.400391	2714.077148
3298.124023	2782.134277
3296.847656	2707.167480
3295.571289	2628.312012
3294.294922	2696.346436
3293.017578	2875.947021
3291.740234	2654.214844
3290.462891	2745.689209
3289.185547	2672.770752
3287.907227	2713.343506
3286.628906	2665.885254
3285.350586	2729.909912
3284.072266	2643.363281
3282.792969	2629.176514
3281.513672	2763.529541
3280.234375	2657.485352
3278.955078	2725.357422
3277.674805	2607.640869
3276.394531	2654.013916
3275.114258	2674.986328
3273.833984	2660.811279
3272.552734	2605.653809
3271.272461	2644.186035
3269.990234	2655.388428
3268.708984	2680.241211
3267.426758	2627.071777
3266.145508	2632.420898
3264.862305	2600.725830
3263.580078	2596.331543
3262.296875	2545.167236
3261.014648	2626.516846
3259.731445	2592.898682
3258.447266	2627.463135
3257.164063	2582.173096
3255.879883	2647.877686
3254.595703	2520.843750
3253.310547	2508.685547
3252.026367	2587.987061
3250.741211	2618.620850
3249.456055	2485.853760
3248.169922	2604.008545
3246.884766	2471.294434
3245.598633	2488.318848
3244.312500	2530.604004
3243.025391	2516.518066
3241.739258	2523.809326
3240.452148	2500.017334
3239.165039	2557.804443
3237.876953	2448.576904
3236.589844	2568.476318
3235.301758	2404.939209
3234.013672	2468.521973
3232.724609	2429.244629
3231.436523	2471.458984
3230.147461	2465.168213
3228.857422	2530.629639
3227.568359	2408.001221
3226.278320	2413.356445
3224.989258	2430.338135
3223.698242	2365.929688
3222.408203	2427.472168
3221.117188	2411.512695
3219.826172	2385.876221
3218.535156	2428.017090
3217.244141	2315.273926
3215.952148	2419.347168
3214.660156	2366.636963
3213.368164	2387.466553
3212.076172	2323.176025
3210.783203	2407.827881
3209.490234	2339.690430
3208.197266	2484.237549
3206.903320	2348.460205
3205.610352	2328.686035
3204.316406	2276.072510
3203.022461	2246.660645
3201.727539	2354.389893
3200.432617	2365.525635
3199.137695	2287.846436
3197.842773	2302.851074
3196.547852	2250.302246
3195.251953	2309.688232
3193.956055	2288.025146
3192.660156	2256.726074
3191.363281	2231.224121
3190.067383	2277.071289
3188.770508	2193.743652
3187.472656	2270.417725
3186.175781	2289.252930
3184.877930	2290.741211
3183.580078	2286.450195
3182.282227	2183.940918
3180.983398	2156.565674
3179.684570	2265.885498
3178.385742	2182.686523
3177.086914	2214.983398
3175.788086	2168.382324
3174.488281	2096.791504
3173.188477	2231.020508
3171.887695	2136.369873
3170.587891	2107.122070
3169.287109	2104.796143
3167.986328	2092.862061
3166.685547	2165.476074
3165.383789	2138.166016
3164.082031	2155.042725
3162.780273	2087.417480
3161.478516	2040.937866
3160.175781	2078.938721
3158.873047	2111.167480
3157.570313	2172.166748
3156.267578	2173.668701
3154.963867	2102.280762
3153.660156	2090.371094
3152.356445	2086.135254
3151.052734	2127.910156
3149.748047	2031.668579
3148.443359	2050.441895
3147.138672	2063.459961
3145.833984	2045.824097
3144.528320	2112.463623
3143.222656	1974.190430
3141.916992	2023.587769
3140.610352	2040.426270
3139.304688	2030.466064
3137.998047	2047.296631
3136.691406	1924.472168
3135.383789	2000.607788
3134.076172	1893.137207
3132.768555	1999.839844
3131.460938	1997.544312
3130.153320	1962.760010
3128.844727	2033.082397
3127.536133	2011.677368
3126.227539	1919.608276
3124.917969	1947.885010
3123.608398	1991.425415
3122.298828	1981.498047
3120.989258	1988.751831
3119.678711	1934.939453
3118.369141	1858.253540
3117.057617	2010.495728
3115.747070	1899.496216
3114.436523	1981.121826
3113.125000	1952.145264
3111.813477	1995.608765
3110.500977	1945.677979
3109.189453	1954.830566
3107.876953	1883.972534
3106.564453	1860.755615
3105.250977	1938.469849
3103.937500	1993.308228
3102.625000	1876.813721
3101.310547	1830.778564
3099.997070	1948.395752
3098.682617	2001.287354
3097.368164	1930.528442
3096.053711	1901.632690
3094.739258	1863.241577
3093.423828	1902.802124
3092.108398	1839.718384
3090.792969	1915.371216
3089.476563	1954.898560
3088.160156	1945.025269
3086.843750	1819.312134
3085.527344	1817.063232
3084.210938	1871.765503
3082.893555	1825.853760
3081.576172	1863.454590
3080.257813	1931.396729
3078.940430	1931.024902
3077.622070	1843.413452
3076.303711	1917.008423
3074.984375	1988.679199
3073.666016	1906.793091
3072.346680	1906.425903
3071.027344	1896.585327
3069.707031	1917.057617
3068.387695	1831.460083
3067.067383	1906.851196
3065.747070	1897.017700
3064.425781	1898.545044
3063.104492	1866.006714
3061.783203	1892.137085
3060.461914	1916.365601
3059.140625	1861.145386
3057.818359	1887.261353
3056.496094	1807.489136
3055.173828	1827.934204
3053.850586	1871.050659
3052.527344	1919.819214
3051.204102	1979.904175
3049.880859	1805.747559
3048.556641	1824.284302
3047.233398	1897.569580
3045.909180	1844.346191
3044.583984	1804.355103
3043.259766	1841.747803
3041.934570	1826.299194
3040.608398	1856.127930
3039.283203	1925.549805
3037.957031	1900.665771
3036.630859	1858.824219
3035.304688	1909.356689
3033.978516	1925.948608
3032.651367	1929.345215
3031.324219	1966.648071
3029.997070	1887.165771
3028.668945	1982.836304
3027.341797	1976.805542
3026.013672	2008.423218
3024.684570	2034.382690
3023.356445	2026.463623
3022.027344	2125.776855
3020.698242	2082.106689
3019.368164	2138.119385
3018.039063	2147.107178
3016.708984	2077.141113
3015.378906	2133.122070
3014.047852	2136.468018
3012.717773	2115.389893
3011.386719	2222.045166
3010.055664	2116.450439
3008.723633	2104.776123
3007.392578	2098.737793
3006.060547	2019.503906
3004.727539	2103.556152
3003.395508	2048.741455
3002.062500	2144.010010
3000.729492	2068.579102
2999.396484	2073.804443
2998.062500	2052.781982
2996.728516	2059.882324
2995.394531	2044.492310
2994.060547	2059.085938
2992.725586	2071.800293
2991.390625	2035.814941
2990.055664	1982.990845
2988.720703	1990.095947
2987.384766	1969.121338
2986.048828	2000.554688
2984.712891	2050.686279
2983.376953	2080.220703
2982.040039	2113.484375
2980.703125	2219.664307
2979.366211	2144.449951
2978.028320	2134.688721
2976.690430	2154.833496
2975.352539	2268.396729
2974.014648	2168.944580
2972.675781	2138.639893
2971.336914	2287.621582
2969.998047	2275.976074
2968.659180	2223.267090
2967.319336	2232.168457
2965.979492	2278.386230
2964.639648	2231.303955
2963.299805	2150.664795
2961.958984	2167.032471
2960.618164	2215.091309
2959.277344	2233.303955
2957.935547	2258.965088
2956.593750	2254.800537
2955.251953	2271.131592
2953.910156	2361.966064
2952.567383	2307.499268
2951.225586	2387.119141
2949.881836	2522.558105
2948.539063	2641.192871
2947.195313	2735.589111
2945.852539	2895.068848
2944.507813	2937.292725
2943.164063	3202.683594
2941.819336	3397.310303
2940.474609	3662.508789
2939.129883	3827.230225
2937.784180	4250.208008
2936.439453	4513.228027
2935.093750	4898.753906
2933.747070	5289.702637
2932.401367	5533.797363
2931.054688	5805.646973
2929.708008	6034.696289
2928.360352	6026.102051
2927.013672	6065.754395
2925.666016	5884.625000
2924.318359	5527.357910
2922.969727	5188.773926
2921.621094	4785.427246
2920.272461	4493.461426
2918.923828	4175.661621
2917.575195	3783.863770
2916.225586	3614.537354
2914.875977	3313.762939
2913.525391	3001.993652
2912.175781	2908.831787
2910.825195	2786.086182
2909.474609	2683.747803
2908.123047	2426.006836
2906.772461	2451.437500
2905.420898	2371.420654
2904.069336	2306.230225
2902.716797	2344.612549
2901.364258	2135.253174
2900.011719	2127.445068
2898.659180	2145.511475
2897.305664	2097.056152
2895.953125	2028.299683
2894.599609	1937.406860
2893.245117	1931.490601
2891.891602	1938.499878
2890.537109	1866.135620
2889.181641	1882.381958
2887.827148	1828.507690
2886.471680	1885.339478
2885.116211	1873.906494
2883.760742	1886.450317
2882.405273	1882.395996
2881.048828	1815.670288
2879.692383	1815.317139
2878.334961	1785.482300
2876.978516	1775.923706
2875.621094	1816.099731
2874.263672	1742.085205
2872.905273	1800.663574
2871.547852	1748.770508
2870.189453	1761.313232
2868.830078	1801.452515
2867.471680	1721.993164
2866.112305	1712.461060
2864.752930	1778.332397
2863.393555	1645.602539
2862.033203	1704.107910
2860.672852	1733.183228
2859.312500	1681.393188
2857.952148	1778.438965
2856.590820	1770.745117
2855.229492	1739.179443
2853.868164	1795.761475
2852.505859	1718.308105
2851.144531	1635.378540
2849.782227	1726.814087
2848.418945	1741.155396
2847.056641	1777.503540
2845.693359	1747.812866
2844.330078	1729.135742
2842.965820	1789.297485
2841.602539	1700.967651
2840.238281	1684.142822
2838.874023	1702.136841
2837.508789	1683.486328
2836.143555	1578.761963
2834.778320	1651.700195
2833.413086	1671.516968
2832.046875	1586.990723
2830.681641	1559.229980
2829.314453	1547.947510
2827.948242	1661.066406
2826.581055	1563.804810
2825.214844	1590.929565
2823.846680	1570.507935
2822.479492	1579.341187
2821.111328	1494.964111
2819.743164	1587.860962
2818.375000	1461.497070
2817.005859	1634.730713
2815.636719	1555.886841
2814.267578	1546.454102
2812.898438	1502.341553
2811.528320	1481.972290
2810.158203	1509.053955
2808.788086	1527.003052
2807.416992	1579.601440
2806.046875	1495.404419
2804.675781	1573.514648
2803.303711	1502.112183
2801.932617	1498.173584
2800.560547	1512.458862
2799.188477	1497.588379
2797.815430	1511.868042
2796.443359	1495.182007
2795.070313	1522.202148
2793.696289	1505.520508
2792.323242	1430.602051
2790.949219	1503.112427
2789.575195	1486.444092
2788.201172	1484.334595
2786.826172	1469.494873
2785.451172	1445.569458
2784.076172	1445.286865
2782.701172	1477.721313
2781.325195	1486.518677
2779.949219	1475.326538
2778.573242	1455.056030
2777.196289	1447.506592
2775.819336	1419.985962
2774.442383	1495.958496
2773.065430	1428.506104
2771.687500	1453.633545
2770.309570	1471.493286
2768.931641	1469.391357
2767.553711	1467.290039
2766.174805	1432.549194
2764.795898	1452.211914
2763.416992	1435.613892
2762.037109	1444.394287
2760.657227	1386.129639
2759.277344	1382.235229
2757.897461	1416.377808
2756.516602	1437.830933
2755.135742	1435.738892
2753.754883	1449.939087
2752.373047	1429.747314
2750.991211	1483.750854
2749.609375	1409.287231
2748.227539	1463.273560
2746.844727	1426.819092
2745.461914	1370.490479
2744.079102	1362.991333
2742.696289	1458.512573
2741.312500	1425.701294
2739.928711	1439.874878
2738.544922	1430.561279
2737.160156	1399.580444
2735.775391	1453.472900
2734.390625	1469.434814
2733.005859	1409.586792
2731.620117	1396.678955
2730.234375	1405.425781
2728.848633	1551.257080
2727.461914	1453.567505
2726.076172	1399.190063
2724.689453	1456.602905
2723.301758	1398.641235
2721.915039	1524.508301
2720.527344	1497.184204
2719.138672	1534.718140
2717.750977	1420.956665
2716.362305	1550.321411
2714.973633	1481.607666
2713.584961	1484.916748
2712.195313	1490.023926
2710.806641	1392.575195
2709.416016	1564.990356
2708.026367	1561.086304
2706.635742	1505.037720
2705.245117	1466.988892
2703.854492	1472.093140
2702.462891	1484.383667
2701.072266	1482.295410
2699.680664	1539.488159
2698.288086	1445.792969
2696.896484	1418.574097
2695.503906	1457.792358
2694.110352	1435.966431
2692.717773	1412.354492
2691.324219	1419.254028
2689.930664	1413.593506
2688.537109	1434.838379
2687.142578	1441.729248
2685.748047	1382.282104
2684.353516	1367.670532
2682.958984	1410.413086
2681.563477	1370.716553
2680.167969	1429.564453
2678.771484	1409.581421
2677.375977	1412.885864
2675.979492	1392.913940
2674.583008	1372.949707
2673.185547	1404.893921
2671.789063	1418.932129
2670.391602	1397.185425
2668.993164	1321.788696
2667.595703	1421.671631
2666.197266	1421.391968
2664.798828	1394.298950
2663.400391	1388.662964
2662.000977	1424.126953
2660.601563	1357.745972
2659.202148	1398.560303
2657.801758	1296.494263
2656.401367	1401.580811
2655.000977	1394.164551
2653.600586	1333.208618
2652.199219	1327.593018
2650.797852	1412.965942
2649.396484	1398.418091
2647.995117	1369.609253
2646.592773	1419.263428
2645.190430	1349.460815
2643.787109	1413.357544
2642.384766	1304.380859
2640.981445	1382.513916
2639.578125	1355.522949
2638.173828	1399.778076
2636.769531	1413.746704
2635.365234	1397.446411
2633.960938	1407.850098
2632.555664	1329.275391
2631.150391	1346.804688
2629.745117	1335.866577
2628.339844	1328.489502
2626.933594	1376.235962
2625.527344	1358.187256
2624.121094	1329.481445
2622.713867	1370.091064
2621.306641	1437.334839
2619.899414	1293.168579
2618.492188	1355.072876
2617.083984	1305.088013
2615.675781	1374.066528
2614.266602	1379.120239
2612.858398	1339.807495
2611.449219	1291.639038
2610.040039	1319.766235
2608.629883	1358.523560
2607.220703	1338.750488
2605.810547	1368.624390
2604.399414	1318.724854
2602.989258	1348.590820
2601.578125	1419.195801
2600.166992	1340.972778
2598.754883	1344.250244
2597.343750	1386.482422
2595.930664	1345.489868
2594.518555	1412.485474
2593.106445	1415.745972
2591.693359	1314.614380
2590.280273	1379.807129
2588.866211	1317.632446
2587.452148	1287.311279
2586.038086	1334.791260
2584.624023	1399.928345
2583.208984	1343.100098
2581.794922	1325.165894
2580.378906	1264.841797
2578.963867	1347.602783
2577.547852	1329.677979
2576.131836	1398.269409
2574.715820	1322.091919
2573.298828	1367.715210
2571.881836	1312.747070
2570.464844	1360.118164
2569.047852	1331.629272
2567.629883	1361.343750
2566.211914	1331.102661
2564.793945	1292.060059
2563.375000	1349.962158
2561.956055	1344.409180
2560.537109	1414.609497
2559.118164	1343.877319
2557.698242	1327.762939
2556.278320	1389.121582
2554.857422	1290.272095
2553.437500	1381.532227
2552.016602	1328.471924
2550.595703	1333.486694
2549.173828	1407.095215
2547.752930	1301.305542
2546.330078	1399.505615
2544.908203	1379.892456
2543.485352	1362.044556
2542.063477	1354.746338
2540.639648	1312.315430
2539.216797	1354.209961
2537.792969	1380.283081
2536.369141	1299.245728
2534.945313	1370.959351
2533.520508	1335.587036
2532.095703	1328.303711
2530.670898	1336.812256
2529.245117	1317.253418
2527.819336	1376.616577
2526.393555	1365.823975
2524.967773	1342.764893
2523.541016	1324.972778
2522.114258	1347.489502
2520.687500	1313.936035
2519.260742	1283.899048
2517.833008	1316.917725
2516.405273	1395.445923
2514.976563	1403.921875
2513.547852	1303.883301
2512.119141	1357.869507
2510.690430	1322.610596
2509.261719	1364.327515
2507.832031	1376.298462
2506.402344	1314.829956
2504.971680	1387.989258
2503.541016	1375.479614
2502.110352	1312.300171
2500.679688	1381.922119
2499.248047	1346.713745
2497.816406	1363.910034
2496.384766	1349.671265
2494.953125	1347.657715
2493.520508	1328.191650
2492.087891	1305.243286
2490.655273	1310.218140
2489.221680	1290.770874
2487.788086	1285.282837
2486.354492	1300.719971
2484.919922	1331.840088
2483.485352	1326.346924
2482.050781	1385.330322
2480.616211	1235.225220
2479.180664	1287.235718
2477.745117	1328.776489
2476.309570	1312.841919
2474.873047	1335.211792
2473.437500	1374.977539
2472.000000	1319.020020
2470.563477	1287.441772
2469.125977	1257.615479
2467.688477	1307.799316
2466.250977	1403.170532
2464.812500	1373.338745
2463.374023	1275.734497
2461.935547	1341.513916
2460.497070	1355.146118
2459.057617	1363.561768
2457.618164	1307.717041
2456.177734	1368.228516
2454.738281	1362.748413
2453.297852	1303.465576
2451.857422	1296.265137
2450.416016	1308.151978
2448.974609	1321.768555
2447.533203	1274.680542
2446.091797	1324.710449
2444.649414	1288.041870
2443.207031	1351.914917
2441.764648	1362.043091
2440.321289	1344.446655
2438.877930	1297.409912
2437.434570	1373.352783
2435.990234	1385.199951
2434.546875	1263.743286
2433.101563	1367.340332
2431.657227	1335.919678
2430.211914	1335.653564
2428.766602	1350.955566
2427.321289	1319.556763
2425.875977	1281.254028
2424.429688	1367.435913
2422.983398	1284.200439
2421.536133	1297.769043
2420.089844	1347.614014
2418.642578	1312.798218
2417.194336	1359.166138
2415.747070	1408.968994
2414.298828	1317.192505
2412.849609	1349.723755
2411.401367	1333.923828
2409.952148	1373.339966
2408.502930	1302.342896
2407.052734	1355.546265
2405.603516	1325.963379
2404.152344	1325.698975
2402.703125	1342.670410
2401.251953	1416.501831
2399.800781	1280.110718
2398.349609	1279.855347
2396.898438	1277.877808
2395.445313	1353.384888
2393.994141	1349.671875
2392.541016	1308.094360
2391.087891	1323.320801
2389.634766	1307.572266
2388.181641	1290.109863
2386.728516	1284.692993
2385.275391	1330.861938
2383.820313	1291.056641
2382.365234	1356.112305
2380.910156	1276.793823
2379.455078	1302.310181
2378.000000	1238.493530
2376.544922	1267.442139
2375.089844	1361.627197
2373.632813	1234.318237
2372.175781	1301.010254
2370.718750	1273.293945
2369.261719	1331.372925
2367.804688	1308.807495
2366.347656	1334.270996
2364.888672	1261.988770
2363.429688	1335.452148
2361.972656	1285.479980
2360.513672	1297.218506
2359.054688	1213.008179
2357.593750	1209.339722
2356.134766	1275.889526
2354.673828	1249.950562
2353.214844	1265.107910
2351.753906	1263.143433
2350.292969	1230.377441
2348.832031	1130.899658
2347.369141	1253.833008
2345.908203	1270.684326
2344.445313	1229.393433
2342.984375	1253.080811
2341.521484	1220.355713
2340.058594	1223.529175
2338.593750	1248.911865
2337.130859	1255.494507
2335.667969	1279.152710
2334.203125	1212.305298
2332.738281	1326.440430
2331.273438	1271.557617
2329.808594	1271.303101
2328.343750	1250.575317
2326.878906	1257.148071
2325.412109	1311.469849
2323.945313	1185.031250
2322.478516	1154.108643
2321.011719	1228.871094
2319.544922	1213.288452
2318.078125	1189.193359
2316.611328	1229.836182
2315.142578	1217.668579
2313.673828	1176.560059
2312.205078	1191.645386
2310.736328	1223.744873
2309.267578	1203.079590
2307.798828	1214.747803
2306.328125	1171.979736
2304.859375	1176.846680
2303.388672	1185.112305
2301.917969	1193.374634
2300.447266	1205.032715
2298.974609	1197.994019
2297.503906	1156.979126
2296.031250	1206.006592
2294.560547	1288.979492
2293.087891	1151.189453
2291.615234	1190.002930
2290.142578	1203.342163
2288.667969	1194.616211
2287.195313	1185.893799
2285.720703	1187.352173
2284.246094	1209.160278
2282.773438	1202.135498
2281.296875	1217.151001
2279.822266	1205.042725
2278.347656	1223.440552
2276.871094	1206.253296
2275.396484	1199.235718
2273.919922	1210.849487
2272.443359	1154.732300
2270.966797	1147.729126
2269.488281	1211.812744
2268.011719	1176.034546
2266.533203	1143.654297
2265.056641	1138.350220
2263.578125	1210.839600
2262.099609	1166.636108
2260.619141	1166.401733
2259.140625	1167.857544
2257.662109	1223.384888
2256.181641	1125.152832
2254.701172	1231.338623
2253.220703	1212.515137
2251.740234	1166.684570
2250.259766	1168.138184
2248.777344	1245.538574
2247.296875	1169.355957
2245.814453	1189.365356
2244.332031	1145.271973
2242.849609	1187.200806
2241.367188	1218.996460
2239.884766	1161.437988
2238.400391	1199.967407
2236.917969	1140.750732
2235.433594	1189.376709
2233.949219	1192.506104
2232.464844	1167.006348
2230.978516	1213.913818
2229.494141	1107.620728
2228.009766	1198.278564
2226.523438	1139.145142
2225.037109	1212.937012
2223.550781	1205.964966
2222.064453	1224.220093
2220.576172	1176.897705
2219.089844	1176.660767
2217.601563	1211.716675
2216.115234	1187.948853
2214.626953	1258.266724
2213.138672	1246.256226
2211.648438	1153.646362
2210.160156	1166.845215
2208.669922	1220.324707
2207.181641	1230.148315
2205.691406	1139.293823
2204.201172	1226.297485
2202.710938	1130.448730
2201.218750	1198.973145
2199.728516	1235.615601
2198.236328	1129.765381
2196.744141	1218.358887
2195.251953	1208.060059
2193.759766	1135.783081
2192.267578	1159.002197
2190.775391	1190.584473
2189.281250	1165.231567
2187.787109	1168.344360
2186.294922	1204.925903
2184.800781	1181.258545
2183.304688	1212.804077
2181.810547	1179.109497
2180.316406	1157.133667
2178.820313	1195.352051
2177.324219	1233.555054
2175.828125	1138.050781
2174.332031	1184.603760
2172.835938	1154.296265
2171.337891	1214.188110
2169.841797	1249.008911
2168.343750	1176.969971
2166.845703	1188.416260
2165.347656	1146.456665
2163.849609	1253.005981
2162.351563	1171.015381
2160.851563	1220.812256
2159.353516	1160.537964
2157.853516	1146.966675
2156.353516	1225.072998
2154.853516	1198.162720
2153.353516	1166.264893
2151.851563	1139.377197
2150.351563	1232.410522
2148.849609	1130.591431
2147.347656	1186.964355
2145.845703	1153.436279
2144.343750	1176.500244
2142.839844	1177.926270
2141.337891	1222.599976
2139.833984	1197.406860
2138.330078	1142.294678
2136.826172	1168.662109
2135.322266	1209.977173
2133.818359	1191.453613
2132.314453	1164.630493
2130.808594	1141.140259
2129.302734	1204.016602
2127.796875	1195.471191
2126.291016	1160.368530
2124.785156	1178.390503
2123.279297	1199.723877
2121.771484	1187.867920
2120.263672	1116.303589
2118.757813	1237.138062
2117.250000	1165.592529
2115.740234	1148.779785
2114.232422	1185.009033
2112.724609	1181.455078
2111.214844	1206.066162
2109.705078	1164.413330
2108.195313	1202.265869
2106.685547	1192.088379
2105.175781	1133.909912
2103.664063	1193.260620
2102.154297	1171.508179
2100.642578	1217.592285
2099.130859	1175.995605
2097.619141	1127.801025
2096.107422	1149.065918
2094.595703	1153.791992
2093.082031	1193.222168
2091.570313	1174.804688
2090.056641	1149.786743
2088.542969	1118.172241
2087.029297	1179.044556
2085.513672	1188.711426
2084.000000	1196.723755
2082.484375	1166.775391
2080.968750	1220.988281
2079.455078	1154.754761
2077.937500	1182.558960
2076.421875	1174.074219
2074.906250	1155.700928
2073.388672	1158.763184
2071.873047	1204.671509
2070.355469	1191.245972
2068.837891	1182.767700
2067.320313	1198.997437
2065.800781	1193.814209
2064.283203	1114.549316
2062.763672	1269.044434
2061.244141	1186.505005
2059.724609	1229.042114
2058.205078	1172.863647
2056.685547	1184.137939
2055.164063	1132.924194
2053.644531	1152.421753
2052.123047	1193.278687
2050.601563	1147.023926
2049.080078	1199.365845
2047.558594	1174.482788
2046.035156	1251.432373
2044.513672	1164.153931
2042.990234	1193.466797
2041.466797	1181.735229
2039.943359	1138.830078
2038.419922	1187.817627
2036.896484	1174.453857
2035.371094	1143.055786
2033.847656	1146.102783
2032.322266	1106.526611
2030.796875	1157.109619
2029.271484	1186.369751
2027.744141	1140.256226
2026.218750	1141.662231
2024.691406	1224.949463
2023.164063	1191.954346
2021.636719	1203.170654
2020.109375	1178.376465
2018.582031	1160.137451
2017.054688	1184.441040
2015.525391	1164.572388
2013.996094	1190.500244
2012.468750	1118.319336
2010.939453	1144.245972
2009.408203	1165.259155
2007.878906	1142.146362
2006.347656	1151.715698
2004.818359	1174.347656
2003.287109	1175.741577
2001.755859	1170.604248
2000.224609	1191.585938
1998.691406	1194.607300
1997.160156	1166.626099
1995.626953	1117.449097
1994.093750	1244.437988
1992.560547	1139.822998
1991.027344	1206.433838
1989.494141	1193.148193
1987.960938	1155.423096
1986.425781	1112.825439
1984.890625	1146.807373
1983.355469	1096.085327
1981.820313	1174.021606
1980.285156	1128.198486
1978.750000	1144.245117
1977.212891	1150.521240
1975.675781	1107.984741
1974.138672	1218.372070
1972.601563	1180.718018
1971.064453	1164.217285
1969.527344	1165.605591
1967.988281	1168.618530
1966.451172	1142.380127
1964.912109	1156.769165
1963.373047	1117.548950
1961.833984	1157.921265
1960.292969	1198.277100
1958.753906	1116.865112
1957.212891	1150.720581
1955.671875	1105.050537
1954.130859	1171.341675
1952.589844	1107.843506
1951.048828	1140.051270
1949.505859	1121.983643
1947.964844	1173.627563
1946.421875	1205.802002
1944.878906	1171.528076
1943.335938	1232.850342
1941.792969	1174.289063
1940.248047	1112.512939
1938.705078	1248.285645
1937.160156	1092.633911
1935.615234	1137.725464
1934.070313	1173.090332
1932.525391	1180.939209
1930.978516	1240.541504
1929.433594	1164.286011
1927.886719	1130.096680
1926.339844	1126.632935
1924.792969	1191.045654
1923.246094	1171.413208
1921.699219	1104.941895
1920.150391	1174.164551
1918.601563	1164.235962
1917.052734	1226.960327
1915.503906	1171.830322
1913.955078	1124.791626
1912.406250	1156.830200
1910.855469	1122.718506
1909.306641	1140.229370
1907.755859	1123.871704
1906.205078	1134.926514
1904.654297	1165.318237
1903.101563	1169.914063
1901.550781	1147.119019
1899.998047	1206.483643
1898.447266	1128.934448
1896.894531	1152.855347
1895.339844	1131.692017
1893.787109	1160.430786
1892.234375	1132.837769
1890.679688	1137.432251
1889.125000	1183.845459
1887.570313	1175.562256
1886.015625	1139.949341
1884.460938	1178.295776
1882.906250	1126.625122
1881.349609	1190.667847
1879.792969	1106.885498
1878.236328	1129.145264
1876.679688	1186.724487
1875.123047	1155.976440
1873.566406	1191.053833
1872.007813	1145.873535
1870.449219	1152.056763
1868.890625	1232.031006
1867.332031	1106.676025
1865.773438	1087.206543
1864.214844	1208.828369
1862.654297	1134.847534
1861.093750	1211.537842
1859.533203	1206.482666
1857.972656	1175.799072
1856.412109	1135.518433
1854.851563	1228.157959
1853.289063	1176.676636
1851.728516	1171.633423
1850.166016	1201.798096
1848.603516	1196.751709
1847.039063	1178.910400
1845.476563	1193.062012
1843.914063	1213.603516
1842.349609	1168.593018
1840.785156	1142.780396
1839.220703	1204.866577
1837.656250	1153.494751
1836.091797	1185.204102
1834.525391	1178.572876
1832.958984	1163.960938
1831.392578	1192.455811
1829.826172	1246.474854
1828.259766	1204.731323
1826.693359	1204.483887
1825.125000	1127.675781
1823.558594	1127.444092
1821.990234	1119.240601
1820.421875	1189.148071
1818.853516	1160.217041
1817.285156	1158.385254
1815.714844	1148.588867
1814.144531	1223.210693
1812.576172	1157.671143
1811.005859	1119.223511
1809.433594	1174.704224
1807.863281	1121.946167
1806.292969	1209.225098
1804.720703	1231.247070
1803.148438	1167.376587
1801.576172	1184.627686
1800.003906	1170.076050
1798.431641	1118.972900
1796.857422	1172.772949
1795.285156	1182.064453
1793.710938	1154.817261
1792.136719	1145.050781
1790.562500	1152.754150
1788.986328	1142.991943
1787.412109	1141.169556
1785.835938	1174.258179
1784.259766	1188.295044
1782.683594	1188.050415
1781.107422	1159.260498
1779.531250	1120.968994
1777.955078	1160.368286
1776.376953	1147.450317
1774.798828	1180.489502
1773.220703	1161.235718
1771.642578	1183.171021
1770.064453	1157.590210
1768.484375	1176.350708
1766.906250	1130.203613
1765.326172	1129.970825
1763.746094	1145.560547
1762.166016	1200.692383
1760.583984	1152.996460
1759.003906	1152.758911
1757.421875	1150.940308
1755.841797	1209.186523
1754.259766	1163.108276
1752.675781	1200.788086
1751.093750	1173.686279
1749.511719	1198.713501
1747.927734	1098.988892
1746.343750	1152.437378
1744.759766	1120.632568
1743.175781	1235.597534
1741.591797	1135.947266
1740.005859	1189.343872
1738.421875	1200.137817
1736.835938	1169.932251
1735.250000	1220.135742
1733.664063	1137.927856
1732.076172	1211.753418
1730.490234	1206.776978
1728.902344	1179.751099
1727.316406	1264.545532
1725.728516	1243.816528
1724.138672	1267.171631
1722.550781	1233.860107
1720.962891	1277.662598
1719.373047	1260.094116
1717.783203	1296.008789
1716.193359	1327.191162
1714.603516	1352.071777
1713.013672	1392.660645
1711.421875	1409.659668
1709.830078	1475.358887
1708.240234	1569.306641
1706.648438	1597.252197
1705.054688	1618.905273
1703.462891	1624.850342
1701.871094	1665.323486
1700.277344	1644.578857
1698.683594	1636.394165
1697.089844	1581.154663
1695.496094	1585.532471
1693.902344	1450.360352
1692.306641	1432.816406
1690.710938	1468.568115
1689.117188	1377.379272
1687.521484	1300.328003
1685.923828	1309.457031
1684.328125	1296.657959
1682.730469	1204.014038
1681.134766	1288.294556
1679.537109	1247.336914
1677.939453	1268.984741
1676.341797	1249.949463
1674.742188	1265.331299
1673.144531	1258.814453
1671.544922	1255.427002
1669.945313	1219.215820
1668.345703	1186.145020
1666.746094	1201.523926
1665.144531	1299.689087
1663.544922	1211.958862
1661.943359	1233.568604
1660.341797	1213.018066
1658.740234	1225.253418
1657.138672	1189.107788
1655.535156	1131.134521
1653.933594	1216.692627
1652.330078	1186.809204
1650.726563	1205.273804
1649.123047	1172.287231
1647.519531	1231.269897
1645.914063	1196.733276
1644.310547	1277.497192
1642.705078	1205.582642
1641.099609	1189.759888
1639.494141	1198.854858
1637.888672	1187.709839
1636.281250	1229.483887
1634.675781	1140.537598
1633.068359	1194.749268
1631.460938	1219.386841
1629.853516	1202.028687
1628.244141	1200.224487
1626.636719	1206.192993
1625.027344	1188.848145
1623.417969	1182.386475
1621.808594	1140.199097
1620.199219	1116.666138
1618.589844	1141.278564
1616.978516	1204.691528
1615.369141	1199.785034
1613.757813	1154.533936
1612.146484	1199.286865
1610.535156	1147.849854
1608.921875	1180.178833
1607.310547	1133.418579
1605.697266	1168.837280
1604.083984	1260.036255
1602.470703	1169.901245
1600.857422	1189.797974
1599.242188	1129.143921
1597.628906	1200.143555
1596.013672	1192.152832
1594.398438	1190.357178
1592.783203	1188.562134
1591.167969	1199.145996
1589.550781	1183.427124
1587.935547	1190.914307
1586.318359	1215.407715
1584.701172	1111.573120
1583.083984	1194.808472
1581.466797	1160.562134
1579.847656	1149.505493
1578.230469	1212.599609
1576.611328	1132.039063
1574.992188	1247.608765
1573.373047	1205.667969
1571.751953	1296.479370
1570.132813	1148.071289
1568.511719	1215.714966
1566.890625	1139.881104
1565.269531	1164.318115
1563.648438	1151.741211
1562.027344	1190.038940
1560.404297	1195.955933
1558.783203	1115.582153
1557.160156	1147.701172
1555.537109	1185.967651
1553.912109	1137.983765
1552.289063	1187.013184
1550.664063	1192.922974
1549.041016	1148.045410
1547.416016	1206.273560
1545.791016	1121.416016
1544.164063	1159.631714
1542.539063	1130.174561
1540.912109	1205.268311
1539.287109	1131.240601
1537.660156	1227.816284
1536.033203	1249.069580
1534.404297	1172.006592
1532.777344	1225.512817
1531.148438	1194.549072
1529.519531	1126.756104
1527.890625	1155.681641
1526.261719	1196.870850
1524.632813	1156.733765
1523.001953	1170.296753
1521.373047	1235.992676
1519.742188	1202.005127
1518.111328	1175.695801
1516.478516	1186.178223
1514.847656	1133.835571
1513.214844	1211.725342
1511.583984	1216.067139
1509.951172	1171.406982
1508.318359	1226.276001
1506.683594	1224.489380
1505.050781	1208.930786
1503.416016	1181.138916
1501.783203	1219.133545
1500.148438	1206.644287
1498.511719	1197.218140
1496.876953	1120.533325
1495.242188	1199.774780
1493.605469	1164.378906
1491.968750	1135.108643
1490.332031	1257.064941
1488.695313	1210.989258
1487.058594	1227.530762
1485.419922	1280.700317
1483.781250	1191.916504
1482.142578	1184.038208
1480.503906	1162.433594
1478.865234	1197.269897
1477.226563	1187.870361
1475.585938	1164.753784
1473.945313	1204.140137
1472.304688	1127.692871
1470.664063	1191.447754
1469.023438	1242.989746
1467.380859	1210.747803
1465.740234	1145.021240
1464.097656	1178.272583
1462.455078	1232.817993
1460.812500	1217.343140
1459.167969	1212.524414
1457.525391	1180.328735
1455.880859	1266.762939
1454.236328	1187.436646
1452.591797	1275.353149
1450.947266	1300.922241
1449.302734	1226.196777
1447.656250	1228.978271
1446.009766	1281.879395
1444.363281	1319.573364
1442.716797	1316.260620
1441.070313	1308.395630
1439.421875	1274.735596
1437.775391	1376.122559
1436.126953	1340.945435
1434.478516	1411.944092
1432.830078	1355.546265
1431.179688	1370.421753
1429.531250	1348.915527
1427.880859	1424.398682
1426.230469	1413.495117
1424.580078	1417.742920
1422.929688	1426.531860
1421.279297	1391.409668
1419.626953	1338.137329
1417.974609	1343.910400
1416.322266	1384.482056
1414.669922	1326.706177
1413.017578	1303.740967
1411.363281	1244.493896
1409.710938	1340.989624
1408.056641	1299.897583
1406.402344	1278.468140
1404.748047	1241.938843
1403.091797	1197.872070
1401.437500	1208.192383
1399.781250	1295.514282
1398.125000	1230.329346
1396.468750	1227.052368
1394.812500	1237.357666
1393.154297	1191.838135
1391.498047	1200.637939
1389.839844	1213.958008
1388.181641	1197.118286
1386.523438	1217.970215
1384.865234	1213.193237
1383.205078	1188.830200
1381.544922	1220.215698
1379.884766	1174.775635
1378.224609	1148.930054
1376.564453	1169.765503
1374.904297	1201.128296
1373.242188	1188.837036
1371.580078	1229.209717
1369.919922	1183.824585
1368.255859	1252.755493
1366.593750	1244.974121
1364.931641	1232.686157
1363.267578	1202.367798
1361.603516	1299.786743
1359.939453	1249.936523
1358.275391	1254.179688
1356.611328	1235.895508
1354.945313	1190.594116
1353.279297	1185.840454
1351.613281	1157.076782
1349.947266	1170.337158
1348.281250	1150.589355
1346.615234	1108.352783
1344.947266	1163.600464
1343.279297	1101.889648
1341.611328	1214.071655
1339.943359	1105.921265
1338.275391	1134.154663
1336.605469	1150.392822
1334.935547	1121.696411
1333.267578	1087.022827
1331.597656	1140.684448
1329.925781	1171.873779
1328.255859	1164.145264
1326.583984	1130.987671
1324.912109	1135.236450
1323.240234	1161.914185
1321.568359	1190.075684
1319.896484	1197.298706
1318.224609	1135.774292
1316.550781	1108.640625
1314.876953	1130.814087
1313.203125	1082.783936
1311.529297	1087.035156
1309.853516	1076.355835
1308.179688	1071.651245
1306.503906	1137.083618
1304.828125	1168.174194
1303.152344	1223.117188
1301.474609	1166.190186
1299.798828	1074.994507
1298.121094	1149.300903
1296.443359	1116.270752
1294.765625	1127.955444
1293.087891	1144.104370
1291.410156	1167.693359
1289.730469	1146.599609
1288.050781	1138.913696
1286.371094	1110.392578
1284.691406	1156.290649
1283.011719	1093.557617
1281.332031	1096.301758
1279.650391	1115.403931
1277.968750	1133.010986
1276.287109	1073.308594
1274.605469	1096.862183
1272.921875	1163.498169
1271.240234	1124.625854
1269.556641	1084.284546
1267.873047	1075.145386
1266.189453	1146.183594
1264.505859	1113.284912
1262.820313	1098.208984
1261.134766	1041.594360
1259.451172	1191.201416
1257.765625	1159.804077
1256.078125	1175.869751
1254.392578	1126.698730
1252.705078	1073.101807
1251.019531	1138.077148
1249.332031	1078.574219
1247.642578	1156.852051
1245.955078	1193.630615
1244.267578	1203.742432
1242.578125	1213.849976
1240.888672	1188.433228
1239.199219	1253.287598
1237.509766	1223.435181
1235.818359	1165.493164
1234.128906	1224.396118
1232.437500	1136.909790
1230.746094	1237.180786
1229.054688	1167.462280
1227.363281	1164.260132
1225.669922	1131.515747
1223.976563	1126.845581
1222.283203	1111.841431
1220.589844	1108.653442
1218.896484	1102.515015
1217.203125	1143.598511
1215.507813	1094.671387
1213.812500	1126.889160
1212.117188	1144.346558
1210.421875	1088.078369
1208.726563	1120.276855
1207.029297	1112.670654
1205.332031	1131.589355
1203.636719	1100.414185
1201.937500	1138.473633
1200.240234	1160.319580
1198.542969	1137.990967
1196.843750	1128.918579
1195.144531	1150.752319
1193.445313	1126.968506
1191.746094	1156.148071
1190.046875	1116.196167
1188.345703	1182.123047
1186.644531	1193.632202
1184.943359	1087.562012
1183.242188	1066.760132
1181.541016	1134.110352
1179.837891	1216.119263
1178.136719	1140.971191
1176.433594	1109.898438
1174.730469	1203.602539
1173.027344	1137.309692
1171.322266	1129.732300
1169.619141	1183.766724
1167.914063	1187.915039
1166.208984	1121.681519
1164.503906	1134.636719
1162.796875	1182.761475
1161.091797	1118.036255
1159.384766	1155.888916
1157.677734	1179.078491
1155.970703	1209.579956
1154.263672	1139.047485
1152.554688	1209.065918
1150.847656	1220.516602
1149.138672	1144.173950
1147.429688	1158.559082
1145.720703	1151.000122
1144.009766	1197.546021
1142.300781	1165.129761
1140.589844	1218.960571
1138.878906	1180.708252
1137.167969	1211.137329
1135.455078	1205.037109
1133.744141	1215.003174
1132.031250	1255.625610
1130.318359	1202.808594
1128.605469	1253.631958
1126.892578	1256.283447
1125.179688	1225.381470
1123.464844	1270.333496
1121.750000	1270.063110
1120.035156	1239.177856
1118.320313	1310.333740
1116.605469	1229.906860
1114.888672	1267.525024
1113.171875	1308.040405
1111.455078	1315.043335
1109.738281	1320.587280
1108.021484	1343.597046
1106.302734	1338.944702
1104.585938	1341.569580
1102.867188	1348.557617
1101.148438	1320.635864
1099.429688	1361.070190
1097.708984	1275.004517
1095.990234	1236.941406
1094.269531	1393.623901
1092.548828	1316.323364
1090.828125	1343.641968
1089.105469	1370.948730
1087.384766	1337.261230
1085.662109	1386.332397
1083.939453	1325.080200
1082.216797	1361.073608
1080.492188	1346.276001
1078.769531	1406.906494
1077.044922	1373.253906
1075.320313	1394.707886
1073.595703	1390.061890
1071.871094	1368.027588
1070.146484	1393.815308
1068.419922	1341.369629
1066.693359	1339.635132
1064.966797	1237.993042
1063.240234	1350.644409
1061.513672	1272.200439
1059.785156	1235.753296
1058.056641	1236.936157
1056.328125	1157.120117
1054.599609	1226.285278
1052.871094	1207.228271
1051.140625	1193.961182
1049.412109	1185.035156
1047.681641	1218.013672
1045.951172	1142.636963
1044.218750	1178.498779
1042.488281	1159.475952
1040.755859	1146.235596
1039.023438	1160.423706
1037.291016	1167.390747
1035.558594	1139.729980
1033.826172	1153.910156
1032.091797	1181.062988
1030.357422	1164.951050
1028.623047	1148.845825
1026.888672	1093.836304
1025.154297	1139.709473
1023.417969	1179.800781
1021.681641	1178.108154
1019.945313	1138.978271
1018.208984	1174.724976
1016.472656	1139.930298
1014.734375	1174.222290
1012.998047	1168.216309
1011.259766	1106.115845
1009.521484	1105.879150
1007.783203	1194.783936
1006.042969	1102.530762
1004.302734	1166.966553
1002.564453	1110.679810
1000.824219	1107.568970
999.082031	1094.405640
997.341797	1041.042236
995.599609	1112.599976
993.859375	1087.961426
992.117188	1152.303345
990.373047	1110.450439
988.630859	1157.547119
986.886719	1107.106445
985.144531	1138.412109
983.400391	1059.327759
981.656250	1100.662231
979.910156	1131.948975
978.166016	1095.892822
976.419922	1112.844604
974.673828	1111.174194
972.927734	1086.598389
971.181641	1060.601807
969.433594	1120.476563
967.687500	1118.805542
965.939453	1039.894043
964.191406	1065.412476
962.441406	1103.787964
960.693359	1082.109009
958.943359	1111.889282
957.195313	1091.646729
955.445313	1159.982910
953.693359	1114.030151
951.943359	1075.236694
950.191406	1072.150635
948.441406	1053.365234
946.689453	1041.722900
944.935547	1075.740356
943.183594	1064.098145
941.431641	1061.017334
939.677734	1037.976807
937.923828	1077.667480
936.169922	1090.262695
934.414063	1104.277222
932.660156	1022.839539
930.904297	1065.347656
929.148438	1042.335449
927.392578	1012.214783
925.636719	1037.617432
923.878906	1031.702271
922.123047	1102.617065
920.365234	1086.733398
918.607422	1068.012207
916.849609	1057.829834
915.089844	1103.090576
913.330078	1046.005249
911.572266	1032.992310
909.812500	1034.190674
908.050781	1083.678223
906.291016	1045.105591
904.529297	1022.165955
902.767578	987.881165
901.005859	1088.422119
899.244141	1024.343750
897.482422	1022.704895
895.718750	1013.975891
893.957031	1020.846802
892.193359	1051.812866
890.427734	1000.566040
888.664063	1040.024658
886.898438	934.970642
885.134766	1014.083008
883.369141	1002.536499
881.603516	951.355164
879.835938	995.027649
878.070313	1047.171875
876.302734	1008.746948
874.535156	1045.306274
872.767578	1030.939209
871.000000	961.437012
869.230469	1000.809814
867.460938	1011.900269
865.693359	1008.856201
863.921875	1000.162781
862.152344	1016.895447
860.382813	1005.379761
858.611328	979.751526
856.839844	1010.591980
855.068359	973.684448
853.296875	1014.388611
851.523438	964.801270
849.751953	964.593140
847.978516	955.925537
846.205078	981.092346
844.431641	1004.838989
842.656250	966.578918
840.880859	1017.083618
839.107422	985.879333
837.332031	1041.990356
835.554688	999.531616
833.779297	966.943665
832.001953	969.549255
830.226563	990.443054
828.447266	1023.987000
826.669922	999.859192
824.892578	1048.852173
823.113281	1078.144531
821.333984	1032.940063
819.554688	1074.868652
817.775391	1116.779053
815.996094	1060.359619
814.214844	1141.571045
812.435547	1182.035767
810.654297	1177.569702
808.871094	1333.074341
807.089844	1404.335693
805.306641	1496.605591
803.525391	1692.607666
801.742188	1753.930664
799.958984	1886.714844
798.173828	1828.848633
796.390625	1853.673096
794.605469	1655.757935
792.820313	1536.356567
791.035156	1401.604614
789.248047	1327.106567
787.462891	1259.638672
785.675781	1197.796997
783.888672	1151.371094
782.101563	1107.762451
780.314453	1092.140381
778.525391	1075.126953
776.736328	1102.849854
774.947266	1045.314331
773.158203	1038.102173
771.369141	1082.577271
769.578125	1005.531433
767.789063	975.991943
765.998047	989.740234
764.207031	1006.273743
762.414063	1014.427917
760.623047	944.455139
758.830078	954.013794
757.037109	988.668457
755.244141	961.965271
753.451172	957.575195
751.656250	951.793457
749.863281	958.553345
748.068359	976.453796
746.271484	902.432007
744.476563	942.614197
742.681641	920.137146
740.884766	967.256653
739.087891	905.823730
737.291016	966.837036
735.494141	874.832520
733.695313	917.749084
731.896484	967.598145
730.097656	943.759399
728.298828	894.917786
726.500000	928.067261
724.701172	957.035278
722.900391	966.548584
721.099609	962.173462
719.298828	899.499329
717.496094	924.284668
715.695313	883.846069
713.892578	943.304260
712.089844	950.033936
710.287109	984.492859
708.484375	901.100464
706.679688	943.870911
704.876953	983.851318
703.072266	919.908936
701.267578	923.864319
699.460938	945.820374
697.656250	924.847290
695.849609	919.109497
694.042969	935.516479
692.236328	946.381897
690.429688	926.809937
688.621094	914.161438
686.812500	976.184021
685.005859	988.413269
683.195313	946.735413
681.386719	987.983337
679.578125	932.508667
677.767578	903.300720
675.957031	973.529724
674.146484	923.616516
672.333984	1002.092224
670.523438	948.054443
668.710938	928.532410
666.898438	957.297485
665.085938	959.847290
663.273438	937.577698
661.458984	964.943359
659.644531	1000.566162
657.830078	967.278931
656.015625	991.864868
654.201172	965.480347
652.384766	955.631104
650.570313	980.203308
648.753906	1022.657837
646.935547	992.161072
645.119141	1024.963867
643.300781	933.958069
641.484375	976.385437
639.666016	981.672180
637.847656	988.331177
636.027344	966.127075
634.208984	990.648254
632.388672	969.826904
630.568359	972.362183
628.748047	963.911560
626.925781	958.210144
625.105469	996.431030
623.283203	977.002930
621.460938	1039.896973
619.636719	1016.352966
617.814453	961.279297
615.990234	1036.474487
614.167969	941.670044
612.343750	982.576477
610.517578	961.810486
608.693359	973.928772
606.867188	1027.126709
605.041016	963.919128
603.214844	1043.105103
601.388672	1027.822632
599.562500	1001.600342
597.734375	994.541565
595.906250	1025.781616
594.078125	1041.966431
592.250000	1004.826843
590.419922	1044.244873
588.591797	1005.754272
586.761719	1083.408813
584.931641	1002.582886
583.099609	999.632507
581.269531	1034.912354
579.437500	1036.051147
577.605469	1078.130981
575.773438	1034.233765
573.941406	1039.464111
572.107422	1013.324036
570.273438	1049.917725
568.439453	1060.593872
566.605469	1056.273071
564.771484	1026.064087
562.935547	1089.869385
561.101563	1097.803223
559.265625	1078.498535
557.427734	1080.985474
555.591797	1105.249512
553.753906	1103.646729
551.917969	1077.554688
550.080078	1090.921265
548.240234	1089.322510
546.402344	1104.040161
544.562500	1120.110718
542.724609	1094.043335
540.884766	1108.750000
539.042969	1100.356445
537.203125	1102.831665
535.361328	1064.569702
533.519531	1062.978882
531.677734	977.237732
529.835938	1025.874756
527.994141	1008.013062
526.150391	1026.781494
524.306641	962.820435
522.462891	934.137817
520.619141	997.641113
518.773438	963.542542
516.927734	993.138977
515.082031	978.020569
513.236328	972.388855
511.390625	897.705322
509.542969	951.656738
507.697266	956.861633
505.849609	1006.716919
504.000000	999.731934
502.152344	1019.800354
500.302734	996.588745
498.455078	942.292969
496.605469	1036.700195
494.753906	962.149353
492.904297	984.905762
491.052734	936.062866
489.203125	977.721069
487.351563	970.755676
485.498047	952.994446
483.646484	940.639099
481.792969	947.178833
479.939453	938.876953
478.085938	952.157349
476.232422	942.509583
474.376953	912.644897
472.523438	900.314331
470.667969	901.463989
468.812500	980.749695
466.955078	1002.084290
465.099609	900.869690
463.242188	846.819763
461.384766	916.625549
459.527344	981.017761
457.667969	928.331177
455.810547	917.366089
453.951172	941.371033
452.091797	867.215332
450.232422	906.007080
448.371094	897.744141
446.511719	916.357483
444.650391	924.215881
442.789063	914.611206
440.927734	902.325195
439.064453	899.441711
437.201172	861.663391
435.337891	872.208557
433.474609	931.045349
431.611328	933.522888
429.748047	858.222778
427.882813	930.430420
426.017578	900.737061
424.152344	845.595093
422.285156	931.155518
420.419922	845.222534
418.552734	891.908386
416.685547	909.117676
414.818359	843.325317
412.949219	911.393616
411.082031	850.981812
409.212891	889.588257
407.343750	841.244629
405.472656	927.973083
403.603516	890.336853
401.732422	895.486755
399.861328	946.066895
397.990234	892.419922
396.119141	880.202087
394.246094	880.007935
392.375000	881.148865
390.501953	826.228516
388.628906	834.053101
386.753906	865.889648
384.880859	889.708679
383.005859	865.507507
381.130859	839.983582
379.253906	859.793396
377.378906	850.274536
375.501953	851.419250
373.626953	824.588623
371.748047	813.751831
369.871094	841.534485
367.994141	851.998657
366.115234	849.148499
364.236328	870.251526
362.357422	854.094849
360.478516	856.566284
358.597656	874.993896
356.716797	814.973755
354.835938	845.364990
352.955078	818.600220
351.074219	854.291565
349.191406	831.521423
347.308594	822.041504
345.425781	808.582520
343.542969	828.315125
341.658203	828.131958
339.775391	818.660950
337.890625	859.602844
336.005859	771.879883
334.119141	826.073547
332.234375	829.867737
330.347656	856.191589
328.460938	848.051636
326.574219	814.744263
324.685547	782.776123
322.798828	746.849426
320.910156	787.725220
319.021484	798.139771
317.132813	811.196228
315.242188	799.109375
313.351563	805.546082
311.460938	776.273926
309.570313	789.323486
307.679688	803.689087
305.787109	825.977600
303.896484	780.871399
302.003906	800.513062
300.111328	760.715088
298.216797	768.468872
296.322266	733.975952
294.429688	772.087646
292.535156	800.945862
290.638672	738.764832
288.744141	811.142212
286.847656	775.359131
284.951172	794.962341
283.054688	788.195801
281.158203	756.394714
279.259766	749.639587
277.361328	774.499634
275.462891	751.940796
273.564453	729.391846
271.666016	756.872314
269.765625	780.392456
267.865234	767.062134
265.964844	755.053040
264.064453	744.364380
262.162109	777.070129
260.261719	783.470337
258.359375	803.010254
256.457031	767.354858
254.552734	782.948547
252.650391	774.894348
250.746094	765.530640
248.841797	744.355835
246.937500	815.065735
245.031250	793.889221
243.126953	754.355164
241.220703	747.629333
239.314453	819.586853
237.406250	774.829041
235.500000	778.589111
233.591797	760.069519
231.683594	807.066772
229.775391	793.788513
227.865234	840.757263
225.957031	815.693604
224.046875	801.113098
222.136719	785.230286
220.226563	790.289307
218.314453	782.264648
216.402344	818.710266
214.490234	826.373413
212.578125	786.971680
210.666016	841.689270
208.751953	776.167969
206.839844	828.250732
204.925781	812.393188
203.009766	864.444641
201.095703	801.587341
