#Wave		#Intensity
4001.644531	2998.407959
4000.500000	2987.488770
3999.354492	2910.520508
3998.209961	2853.227783
3997.064453	2970.566650
3995.918945	2950.381836
3994.772461	2901.840088
3993.626953	2951.480713
3992.480469	2988.016846
3991.333984	2932.952881
3990.187500	2949.856445
3989.040039	2920.977295
3987.893555	2940.056152
3986.746094	2898.114990
3985.598633	2941.155762
3984.451172	3071.310059
3983.302734	2903.052979
3982.154297	2919.939697
3981.006836	2884.571045
3979.857422	2979.813477
3978.708984	2966.208984
3977.560547	2826.410889
3976.411133	2862.874268
3975.261719	3034.176514
3974.112305	2907.490234
3972.961914	2917.827637
3971.811523	2930.334717
3970.662109	2886.327637
3969.511719	2953.161621
3968.360352	2924.375000
3967.209961	2828.259033
3966.058594	2916.784912
3964.907227	2814.191162
3963.755859	2913.542236
3962.604492	2982.467529
3961.452148	2936.344238
3960.299805	2888.067871
3959.147461	2928.756592
3957.995117	2884.837402
3956.841797	2968.884521
3955.689453	2909.795898
3954.536133	2926.604004
3953.382813	2887.051758
3952.228516	2912.525635
3951.075195	2976.989746
3949.920898	2811.806641
3948.766602	2973.729248
3947.612305	2940.700439
3946.458008	2831.906250
3945.302734	2879.008057
3944.147461	2802.729248
3942.992188	2964.503906
3941.836914	2855.784912
3940.680664	2842.281250
3939.525391	2917.451904
3938.369141	2873.669678
3937.211914	2899.083496
3936.055664	2863.966309
3934.898438	2943.399414
3933.742188	2875.876465
3932.584961	2823.500000
3931.426758	2870.498047
3930.269531	2815.982422
3929.111328	2942.850830
3927.953125	2918.563232
3926.794922	2810.110840
3925.636719	2861.383301
3924.477539	2888.904053
3923.319336	2879.743652
3922.160156	2831.765625
3921.000000	2833.400391
3919.840820	2865.217285
3918.680664	2845.290039
3917.520508	2902.954346
3916.360352	2835.623047
3915.200195	2876.032959
3914.040039	2890.580566
3912.878906	2883.587402
3911.717773	2788.317871
3910.556641	2850.233887
3909.394531	2787.290527
3908.233398	2855.639160
3907.071289	2852.961426
3905.909180	2822.319336
3904.746094	2899.226563
3903.583984	2761.068848
3902.420898	2951.907227
3901.257813	2964.260498
3900.094727	2905.686279
3898.931641	2817.050537
3897.767578	2810.085938
3896.603516	2820.307617
3895.439453	2729.588867
3894.275391	2763.440430
3893.111328	2911.060059
3891.946289	2749.542725
3890.781250	2957.198486
3889.616211	2778.567139
3888.451172	2835.975342
3887.285156	2781.831787
3886.119141	2856.373291
3884.953125	2770.085205
3883.787109	2776.004883
3882.620117	2811.927734
3881.454102	2813.551758
3880.287109	2798.035400
3879.120117	2855.354248
3877.952148	2841.977295
3876.785156	2730.107178
3875.617188	2710.335449
3874.449219	2718.396973
3873.281250	2788.517578
3872.112305	2830.796387
3870.944336	2753.259277
3869.775391	2786.973145
3868.606445	2857.028809
3867.436523	2798.772461
3866.267578	2789.704834
3865.097656	2637.440674
3863.927734	2801.495850
3862.757813	2882.166260
3861.587891	2717.152100
3860.416992	2765.771973
3859.246094	2720.418701
3858.075195	2811.718750
3856.904297	2715.144531
3855.732422	2761.593994
3854.560547	2767.485107
3853.388672	2801.107422
3852.216797	2725.935791
3851.044922	2872.579590
3849.872070	2793.157959
3848.699219	2735.083252
3847.526367	2770.811279
3846.353516	2687.190186
3845.179688	2793.223633
3844.005859	2716.019531
3842.832031	2724.036377
3841.658203	2700.109131
3840.484375	2786.899902
3839.309570	2711.882324
3838.134766	2730.534912
3836.959961	2672.577881
3835.785156	2693.357910
3834.609375	2748.163330
3833.434570	2677.474854
3832.258789	2766.282959
3831.082031	2889.072266
3829.906250	2665.361328
3828.729492	2705.244873
3827.552734	2808.854736
3826.375977	2729.735352
3825.199219	2565.688721
3824.021484	2732.972168
3822.844727	2715.481201
3821.666992	2727.714844
3820.489258	2633.826904
3819.310547	2722.460938
3818.131836	2741.051025
3816.954102	2757.512695
3815.774414	2761.243652
3814.595703	2760.732178
3813.416992	2700.861328
3812.237305	2772.427246
3811.057617	2729.529785
3809.877930	2652.747070
3808.697266	2732.755371
3807.516602	2656.000244
3806.336914	2755.036865
3805.155273	2682.540283
3803.974609	2732.847656
3802.792969	2717.525879
3801.612305	2651.424561
3800.430664	2779.988770
3799.248047	2631.404297
3798.066406	2721.856445
3796.883789	2729.810059
3795.701172	2703.934814
3794.518555	2646.363281
3793.335938	2719.838867
3792.152344	2693.979492
3790.968750	2758.968506
3789.785156	2690.868164
3788.601563	2622.793213
3787.417969	2704.649902
3786.233398	2676.705566
3785.048828	2796.511963
3783.864258	2679.933105
3782.678711	2774.376709
3781.494141	2769.643066
3780.308594	2680.550781
3779.123047	2703.248291
3777.937500	2620.525879
3776.750977	2729.646973
3775.564453	2609.016113
3774.377930	2682.278809
3773.191406	2677.567627
3772.004883	2685.495850
3770.817383	2691.314941
3769.629883	2676.076904
3768.442383	2627.162842
3767.254883	2719.282227
3766.066406	2720.881836
3764.878906	2667.778320
3763.690430	2694.628906
3762.500977	2664.684570
3761.312500	2741.991455
3760.123047	2634.261719
3758.933594	2650.588379
3757.744141	2538.712158
3756.554688	2653.806152
3755.364258	2796.167480
3754.173828	2650.719727
3752.983398	2757.328369
3751.792969	2748.417480
3750.602539	2668.135498
3749.411133	2707.517822
3748.219727	2652.454834
3747.028320	2737.982666
3745.835938	2691.324951
3744.644531	2630.003174
3743.452148	2646.289551
3742.259766	2723.368408
3741.067383	2710.285400
3739.874023	2615.473633
3738.680664	2638.036133
3737.487305	2773.717529
3736.293945	2737.593994
3735.100586	2691.013184
3733.906250	2617.230225
3732.711914	2650.237793
3731.517578	2733.465088
3730.323242	2672.270752
3729.127930	2734.540283
3727.932617	2723.572510
3726.737305	2706.333984
3725.541992	2718.376953
3724.345703	2784.772461
3723.150391	2692.281982
3721.954102	2858.972168
3720.757813	2701.727539
3719.560547	2763.897949
3718.364258	2713.254150
3717.166992	2779.575928
3715.969727	2785.322266
3714.771484	2745.140137
3713.574219	2738.367432
3712.375977	2731.597412
3711.177734	2710.224609
3709.979492	2647.139893
3708.780273	2713.386719
3707.582031	2714.966553
3706.382813	2814.533203
3705.183594	2707.701904
3703.983398	2717.617920
3702.784180	2692.107422
3701.583984	2758.271240
3700.383789	2724.430908
3699.182617	2765.573486
3697.982422	2740.072754
3696.781250	2831.158447
3695.580078	2751.539551
3694.378906	2784.322021
3693.177734	2837.897949
3691.975586	2845.689697
3690.773438	2820.201660
3689.571289	2873.740723
3688.369141	2875.283936
3687.166016	2870.590576
3685.962891	2843.038086
3684.759766	2938.089355
3683.556641	2912.611816
3682.352539	2891.297852
3681.149414	2928.139160
3679.945313	2921.364258
3678.740234	2939.502441
3677.536133	2988.767090
3676.331055	3004.810547
3675.126953	3105.913086
3673.920898	2974.648438
3672.715820	2963.723389
3671.510742	3029.525391
3670.304688	3053.838623
3669.098633	3026.322021
3667.891602	3112.799561
3666.685547	3070.777588
3665.478516	3099.207764
3664.271484	3144.197266
3663.064453	3201.595215
3661.857422	3178.221924
3660.649414	3136.226318
3659.441406	3172.895996
3658.233398	3190.927490
3657.025391	3256.538330
3655.816406	3249.724365
3654.607422	3137.435547
3653.398438	3300.205566
3652.189453	3235.499512
3650.980469	3346.514404
3649.770508	3405.821777
3648.560547	3388.655518
3647.350586	3375.627197
3646.139648	3383.258301
3644.929688	3473.490479
3643.718750	3423.288330
3642.507813	3511.414551
3641.295898	3488.054932
3640.084961	3452.322510
3638.873047	3519.761719
3637.661133	3644.933350
3636.449219	3642.189697
3635.236328	3503.354004
3634.023438	3692.368408
3632.810547	3770.005127
3631.597656	3676.561768
3630.384766	3704.720947
3629.170898	3648.405762
3627.957031	3725.991943
3626.743164	3733.532227
3625.529297	3763.717773
3624.314453	3734.194336
3623.099609	3688.216309
3621.884766	3792.472656
3620.669922	3847.312500
3619.454102	3817.794678
3618.239258	3825.306641
3617.023438	3982.920654
3615.806641	3912.276611
3614.590820	3893.045166
3613.374023	3964.244141
3612.157227	4099.111816
3610.940430	3886.750732
3609.723633	4118.116699
3608.505859	4002.347412
3607.288086	3995.438721
3606.070313	4025.481934
3604.852539	4098.614258
3603.633789	4079.378662
3602.415039	4080.666260
3601.196289	4166.053711
3599.977539	4212.442871
3598.758789	4193.199707
3597.539063	4278.517578
3596.319336	4257.219238
3595.099609	4242.076660
3593.878906	4321.189941
3592.659180	4224.098633
3591.438477	4272.462891
3590.217773	4349.477539
3588.996094	4575.923340
3587.775391	4407.210938
3586.553711	4355.219238
3585.332031	4608.136719
3584.109375	4443.604492
3582.887695	4432.543945
3581.665039	4558.508789
3580.442383	4567.877441
3579.219727	4501.602539
3577.996094	4488.494629
3576.773438	4595.961426
3575.549805	4687.042480
3574.325195	4584.023926
3573.101563	4595.418457
3571.876953	4811.011230
3570.652344	4618.194336
3569.427734	4639.781738
3568.203125	4710.341797
3566.977539	4815.563965
3565.752930	4875.863770
3564.526367	4707.690918
3563.300781	4910.742188
3562.075195	4879.235840
3560.848633	4961.901855
3559.622070	4903.900879
3558.395508	4966.152832
3557.167969	5128.214844
3555.940430	5047.807129
3554.712891	5032.603027
3553.485352	5007.222656
3552.257813	5038.856934
3551.029297	5184.468262
3549.800781	5232.337891
3548.572266	5322.918945
3547.343750	5330.056641
3546.114258	5280.239746
3544.884766	5222.307129
3543.655273	5186.761230
3542.425781	5275.231934
3541.195313	5514.071289
3539.965820	5360.628906
3538.734375	5430.731445
3537.503906	5510.963379
3536.273438	5477.432617
3535.041992	5472.342285
3533.810547	5497.706055
3532.579102	5456.076660
3531.346680	5664.080078
3530.115234	5594.028320
3528.882813	5696.437500
3527.650391	5717.677734
3526.416992	5588.845703
3525.184570	5705.390137
3523.951172	5761.076660
3522.717773	5766.073242
3521.483398	5698.119141
3520.250000	5824.683594
3519.015625	5890.432617
3517.781250	5925.778809
3516.545898	5843.670410
3515.311523	5911.402344
3514.076172	6066.144043
3512.840820	5963.817871
3511.605469	6128.606934
3510.369141	6008.101074
3509.133789	6061.579102
3507.897461	6127.169434
3506.660156	6107.820313
3505.423828	6199.655273
3504.186523	6065.100586
3502.949219	6144.784668
3501.711914	6301.208496
3500.474609	6231.345703
3499.236328	6228.152832
3497.998047	6231.018555
3496.759766	6280.313477
3495.521484	6382.067383
3494.282227	6394.991211
3493.042969	6365.540039
3491.803711	6356.271973
3490.564453	6514.405273
3489.324219	6499.062988
3488.084961	6429.291504
3486.844727	6403.891602
3485.603516	6440.976074
3484.363281	6526.404785
3483.122070	6480.854492
3481.880859	6536.030273
3480.639648	6583.129883
3479.397461	6539.606934
3478.156250	6536.361328
3476.914063	6674.002930
3475.671875	6399.073730
3474.428711	6705.688965
3473.186523	6416.775879
3471.943359	6675.004395
3470.700195	6589.292969
3469.456055	6676.507813
3468.212891	6719.468750
3466.968750	6541.353516
3465.724609	6610.443359
3464.479492	6637.320801
3463.235352	6684.272461
3461.990234	6626.784180
3460.745117	6615.495117
3459.499023	6716.622070
3458.253906	6568.845215
3457.007813	6617.770508
3455.761719	6674.702148
3454.515625	6573.149902
3453.268555	6722.319336
3452.021484	6580.694336
3450.775391	6609.522461
3449.527344	6542.131836
3448.280273	6657.125977
3447.032227	6519.625977
3445.784180	6666.631348
3444.536133	6703.425781
3443.287109	6682.135254
3442.039063	6640.832031
3440.790039	6535.490234
3439.541016	6620.312012
3438.291016	6619.061523
3437.041992	6579.800293
3435.791992	6668.564941
3434.541992	6423.330566
3433.291016	6622.058105
3432.041016	6642.796387
3430.790039	6559.595703
3429.539063	6558.355957
3428.287109	6563.110352
3427.036133	6595.827637
3425.784180	6500.714844
3424.532227	6271.854492
3423.280273	6532.195801
3422.027344	6405.211914
3420.774414	6344.131836
3419.521484	6396.804199
3418.268555	6353.702148
3417.014648	6376.434570
3415.761719	6429.069824
3414.507813	6629.223145
3413.252930	6388.764160
3411.999023	6373.604492
3410.744141	6278.745605
3409.489258	6221.774902
3408.234375	6202.670898
3406.978516	6267.216797
3405.723633	6373.550781
3404.467773	6252.900391
3403.210938	6331.331543
3401.955078	6178.894531
3400.698242	6231.444336
3399.441406	6079.083496
3398.184570	6075.943848
3396.927734	6023.093262
3395.669922	6002.071777
3394.412109	6104.296875
3393.154297	6083.267578
3391.896484	5885.405762
3390.637695	5860.451660
3389.378906	5978.515137
3388.120117	17912.289063
3386.861328	5948.454102
3385.601563	5919.535645
3384.341797	5805.285645
3383.082031	5766.483398
3381.822266	5934.027832
3380.561523	5758.347656
3379.300781	5781.055176
3378.040039	5748.234375
3376.779297	5794.724121
3375.517578	5696.503418
3374.256836	5729.112793
3372.995117	5743.877441
3371.732422	5649.684082
3370.470703	5583.253906
3369.208008	5651.502441
3367.945313	5644.491211
3366.682617	5556.325195
3365.418945	5602.769043
3364.155273	5469.133789
3362.891602	5636.254395
3361.627930	5530.353516
3360.363281	5489.753418
3359.099609	5443.236328
3357.834961	5501.508301
3356.569336	5364.089355
3355.304688	5465.827637
3354.039063	5468.742188
3352.773438	5321.530273
3351.507813	5318.545410
3350.241211	5141.798340
3348.975586	5371.804199
3347.708984	5287.883789
3346.442383	5328.322754
3345.174805	5301.661133
3343.907227	5227.664551
3342.639648	5248.367676
3341.372070	5221.735840
3340.104492	5199.057129
3338.835938	5091.624512
3337.567383	5031.532715
3336.298828	5091.661133
3335.029297	4990.220215
3333.760742	5083.818359
3332.491211	4972.569824
3331.221680	5036.600586
3329.951172	5069.109863
3328.681641	5060.273926
3327.411133	4903.853027
3326.139648	5079.993164
3324.869141	4835.108398
3323.597656	4906.958008
3322.327148	4953.217773
3321.054688	4944.412598
3319.783203	4874.676758
3318.510742	4970.045898
3317.238281	4807.983398
3315.965820	4844.394531
3314.693359	4963.283203
3313.419922	4879.863281
3312.146484	4723.830078
3310.873047	4777.895020
3309.599609	4767.173340
3308.325195	4750.568848
3307.050781	4692.771484
3305.776367	4872.335449
3304.501953	4828.264160
3303.226563	4795.973633
3301.951172	4769.576172
3300.675781	4827.468750
3299.400391	4714.851563
3298.124023	4807.998047
3296.847656	4583.771484
3295.571289	4647.529297
3294.294922	4701.472656
3293.017578	4608.562988
3291.740234	4642.918457
3290.462891	4690.959961
3289.185547	4555.058594
3287.907227	4603.098145
3286.628906	4694.148438
3285.350586	4620.900391
3284.072266	4567.231445
3282.792969	4570.270996
3281.513672	4600.670898
3280.234375	4533.357422
3278.955078	4655.574707
3277.674805	4465.218750
3276.394531	4448.744629
3275.114258	4621.673340
3273.833984	4472.427734
3272.552734	4496.948730
3271.272461	4474.625977
3269.990234	4458.165039
3268.708984	4539.244141
3267.426758	4552.030762
3266.145508	4467.315430
3264.862305	4355.338379
3263.580078	4340.863770
3262.296875	4398.500977
3261.014648	4448.322266
3259.731445	4246.821289
3258.447266	4335.605957
3257.164063	4377.620605
3255.879883	4423.513184
3254.595703	4440.188965
3253.310547	4460.750488
3252.026367	4290.609863
3250.741211	4270.336426
3249.456055	4364.832520
3248.169922	4328.994141
3246.884766	4335.945801
3245.598633	4364.278320
3244.312500	4221.560547
3243.025391	4247.960449
3241.739258	4276.292969
3240.452148	4236.625977
3239.165039	4251.354492
3237.876953	4219.474609
3236.589844	4135.188477
3235.301758	4274.153320
3234.013672	4131.668945
3232.724609	4185.208008
3231.436523	4172.769531
3230.147461	4102.148926
3228.857422	4138.209473
3227.568359	4218.849121
3226.278320	4072.660400
3224.989258	4054.439697
3223.698242	3997.471924
3222.408203	4021.893311
3221.117188	4052.116211
3219.826172	4002.927246
3218.535156	4157.059570
3217.244141	3987.846436
3215.952148	3880.632813
3214.660156	3976.646484
3213.368164	4057.145508
3212.076172	3874.539307
3210.783203	3960.828369
3209.490234	3913.664063
3208.197266	3920.648682
3206.903320	3749.804932
3205.610352	3780.008057
3204.316406	3790.878174
3203.022461	3850.038330
3201.727539	3733.417236
3200.432617	3699.875244
3199.137695	3745.503662
3197.842773	3696.529541
3196.547852	3663.013428
3195.251953	3778.086426
3193.956055	3702.125000
3192.660156	3516.249268
3191.363281	3565.716064
3190.067383	3472.485596
3188.770508	3554.712891
3187.472656	3573.305908
3186.175781	3582.256836
3184.877930	3614.323242
3183.580078	3521.171631
3182.282227	3472.350586
3180.983398	3566.035645
3179.684570	3434.443359
3178.385742	3501.152588
3177.086914	3411.959717
3175.788086	3430.546387
3174.488281	3377.950439
3173.188477	3365.763672
3171.887695	3317.045654
3170.587891	3329.868164
3169.287109	3334.996826
3167.986328	3257.484863
3166.685547	3276.075195
3165.383789	3246.631104
3164.082031	3065.461670
3162.780273	3185.855957
3161.478516	3192.925293
3160.175781	3178.875977
3158.873047	3076.546631
3157.570313	3168.062988
3156.267578	3100.307617
3154.963867	3072.859375
3153.660156	3147.063232
3152.356445	3092.772461
3151.052734	3142.022217
3149.748047	2970.835938
3148.443359	3043.085693
3147.138672	2933.293701
3145.833984	2967.211182
3144.528320	2926.422852
3143.222656	2975.646973
3141.916992	2839.149170
3140.610352	2928.566895
3139.304688	2807.439941
3137.998047	2900.655762
3136.691406	2842.709229
3135.383789	2794.347900
3134.076172	2820.583252
3132.768555	2831.513184
3131.460938	2777.446777
3130.153320	2811.314453
3128.844727	2696.127197
3127.536133	2756.743164
3126.227539	2779.134277
3124.917969	2633.464111
3123.608398	2804.797607
3122.298828	2781.351318
3120.989258	2643.398438
3119.678711	2665.789551
3118.369141	2642.383057
3117.057617	2567.483154
3115.747070	2628.017822
3114.436523	2585.564209
3113.125000	2552.658691
3111.813477	2548.356201
3110.500977	2576.451172
3109.189453	2486.407227
3107.876953	2605.939697
3106.564453	2483.546875
3105.250977	2496.398926
3103.937500	2501.630371
3102.625000	2419.300537
3101.310547	2519.699463
3099.997070	2412.661865
3098.682617	2463.561768
3097.368164	2438.362061
3096.053711	2449.302979
3094.739258	2367.077393
3093.423828	2459.766113
3092.108398	2415.580566
3090.792969	2358.110840
3089.476563	2355.757324
3088.160156	2368.600098
3086.843750	2294.080322
3085.527344	2358.195068
3084.210938	2302.689209
3082.893555	2448.390137
3081.576172	2277.134033
3080.257813	2297.565186
3078.940430	2249.700928
3077.622070	2224.613037
3076.303711	2246.938721
3074.984375	2204.798828
3073.666016	2211.955811
3072.346680	2247.535889
3071.027344	2228.156250
3069.707031	2299.711426
3068.387695	2212.146240
3067.067383	2198.464844
3065.747070	2239.692627
3064.425781	2195.725098
3063.104492	2110.139404
3061.783203	2210.016113
3060.461914	2188.780762
3059.140625	2175.119141
3057.818359	2112.295410
3056.496094	2147.811279
3055.173828	2219.229248
3053.850586	2148.873291
3052.527344	2042.642334
3051.204102	2134.820313
3049.880859	2039.965820
3048.556641	2081.119385
3047.233398	2093.935059
3045.909180	2065.214600
3044.583984	2096.902344
3043.259766	2011.581177
3041.934570	2096.093506
3040.608398	2101.348145
3039.283203	2061.337891
3037.957031	2092.995117
3036.630859	2051.116455
3035.304688	2075.223877
3033.978516	1990.021240
3032.651367	2034.856323
3031.324219	1940.275391
3029.997070	2054.788330
3028.668945	1975.304199
3027.341797	1982.453613
3026.013672	2036.657837
3024.684570	1932.757690
3023.356445	1979.424072
3022.027344	2009.141357
3020.698242	1907.187256
3019.368164	1968.875122
3018.039063	1981.655762
3016.708984	1913.601563
3015.378906	1990.287354
3014.047852	1967.354492
3012.717773	1985.761230
3011.386719	2013.552246
3010.055664	1953.068848
3008.723633	1935.793091
3007.392578	1961.700195
3006.060547	1891.877197
3004.727539	1831.463623
3003.395508	1868.632446
3002.062500	1900.159424
3000.729492	1890.415039
2999.396484	1970.676758
2998.062500	1861.563843
2996.728516	1947.422852
2995.394531	1945.172363
2994.060547	1905.450684
2992.725586	1942.546875
2991.390625	1874.747803
2990.055664	1850.042480
2988.720703	1827.218872
2987.384766	1853.070435
2986.048828	1824.640625
2984.712891	1887.903809
2983.376953	1885.667847
2982.040039	1904.006348
2980.703125	1838.188721
2979.366211	1852.789917
2978.028320	1867.385376
2976.690430	1810.957153
2975.352539	1866.662598
2974.014648	1855.092163
2972.675781	1824.848145
2971.336914	1882.385742
2969.998047	1822.274536
2968.659180	1885.390259
2967.319336	1808.504395
2965.979492	1808.154175
2964.639648	1792.878906
2963.299805	1790.666382
2961.958984	1764.210693
2960.618164	1862.690308
2959.277344	1772.848267
2957.935547	1835.875122
2956.593750	1759.117065
2955.251953	1816.532593
2953.910156	1790.102173
2952.567383	1843.764526
2951.225586	1748.443726
2949.881836	1826.294922
2948.539063	1848.276611
2947.195313	1851.640137
2945.852539	1791.742554
2944.507813	1841.621216
2943.164063	1765.009766
2941.819336	1831.609619
2940.474609	1721.565063
2939.129883	1684.055664
2937.784180	1771.074829
2936.439453	1744.718384
2935.093750	1783.391724
2933.747070	1719.896240
2932.401367	1795.698730
2931.054688	1802.776855
2929.708008	1782.008179
2928.360352	1805.789063
2927.013672	1744.205933
2925.666016	1708.619019
2924.318359	1743.529053
2922.969727	1700.538086
2921.621094	1787.350586
2920.272461	1736.952759
2918.923828	1751.442505
2917.575195	1769.632690
2916.225586	1685.919434
2914.875977	1774.502441
2913.525391	1731.563232
2912.175781	1751.594360
2910.825195	1758.659058
2909.474609	1676.879639
2908.123047	1685.806396
2906.772461	1641.075562
2905.420898	1677.752441
2904.069336	1697.770142
2902.716797	1688.194946
2901.364258	1632.405762
2900.011719	1670.903809
2898.659180	1665.035156
2897.305664	1646.235229
2895.953125	1712.416870
2894.599609	1737.940796
2893.245117	1706.211548
2891.891602	1678.187012
2890.537109	1674.169067
2889.181641	1655.388916
2887.827148	1682.743652
2886.471680	1715.622070
2885.116211	1685.778076
2883.760742	1703.890625
2882.405273	1712.777588
2881.048828	1627.651733
2879.692383	1677.094971
2878.334961	1693.352173
2876.978516	1716.971924
2875.621094	1617.176025
2874.263672	1694.205444
2872.905273	1725.175659
2871.547852	1583.097412
2870.189453	1704.259277
2868.830078	1683.686523
2867.471680	1710.954834
2866.112305	1638.885986
2864.752930	1552.132935
2863.393555	1663.989136
2862.033203	1696.754639
2860.672852	1725.831421
2859.312500	1629.940674
2857.952148	1692.089111
2856.590820	1748.702637
2855.229492	1636.334595
2853.868164	1558.897217
2852.505859	1654.055176
2851.144531	1677.593628
2849.782227	1658.915894
2848.418945	1577.864746
2847.056641	1660.103882
2845.693359	1668.950439
2844.330078	1531.101074
2842.965820	1604.134521
2841.602539	1583.659546
2840.238281	1678.645142
2838.874023	1636.176758
2837.508789	1617.539063
2836.143555	1637.370239
2834.778320	1684.661011
2833.413086	1587.300293
2832.046875	1662.038696
2830.681641	1650.734131
2829.314453	1650.412109
2827.948242	1639.114014
2826.581055	1620.504150
2825.214844	1704.306152
2823.846680	1634.498291
2822.479492	1643.319092
2821.111328	1672.239868
2819.743164	1702.976318
2818.375000	1616.781128
2817.005859	1673.087524
2815.636719	1674.587036
2814.267578	1579.318481
2812.898438	1708.616821
2811.528320	1607.903442
2810.158203	1645.908813
2808.788086	1640.114380
2807.416992	1594.193604
2806.046875	1730.657104
2804.675781	1620.920654
2803.303711	1544.040039
2801.932617	1622.110107
2800.560547	1605.393066
2799.188477	1637.873413
2797.815430	1659.411743
2796.443359	1615.379395
2795.070313	1527.664551
2793.696289	1565.595703
2792.323242	1610.792358
2790.949219	1626.855347
2789.575195	1610.162842
2788.201172	1573.467407
2786.826172	1596.802612
2785.451172	1661.950195
2784.076172	1596.178345
2782.701172	1628.583374
2781.325195	1526.498413
2779.949219	1602.509888
2778.573242	1611.279175
2777.196289	1563.743042
2775.819336	1545.278809
2774.442383	1657.536499
2773.065430	1640.876099
2771.687500	1584.297119
2770.309570	1551.327637
2768.931641	1590.933594
2767.553711	1577.926270
2766.174805	1577.617554
2764.795898	1609.942749
2763.416992	1602.377075
2762.037109	1593.001953
2760.657227	1569.135010
2759.277344	1532.596313
2757.897461	1610.178955
2756.516602	1600.809326
2755.135742	1566.096069
2753.754883	1545.877686
2752.373047	1549.194580
2750.991211	1561.557251
2749.609375	1593.815186
2748.227539	1550.093140
2746.844727	1604.041260
2745.461914	1498.860962
2744.079102	1576.297607
2742.696289	1610.328003
2741.312500	1595.556641
2739.928711	1510.332886
2738.544922	1546.162231
2737.160156	1549.471069
2735.775391	1529.306274
2734.390625	1588.578125
2733.005859	1609.924927
2731.620117	1521.189087
2730.234375	1454.137573
2728.848633	1527.807739
2727.461914	1529.311646
2726.076172	1507.374756
2724.689453	1530.514648
2723.301758	1638.356812
2721.915039	1537.122437
2720.527344	1585.465820
2719.138672	1538.320679
2717.750977	1469.582520
2716.362305	1487.300171
2714.973633	1566.219482
2713.584961	1477.717163
2712.195313	1553.008057
2710.806641	1642.662964
2709.416016	1608.162598
2708.026367	1519.721069
2706.635742	1549.991089
2705.245117	1571.260132
2703.854492	1513.433960
2702.462891	1568.846191
2701.072266	1518.229858
2699.680664	1494.578979
2698.288086	1510.449585
2696.896484	1569.409790
2695.503906	1540.376587
2694.110352	1538.279053
2692.717773	1559.512207
2691.324219	1480.258667
2689.930664	1517.639771
2688.537109	1544.244751
2687.142578	1506.284302
2685.748047	1468.338501
2684.353516	1545.127075
2682.958984	1569.913330
2681.563477	1569.604736
2680.167969	1529.884766
2678.771484	1522.419678
2677.375977	1604.493896
2675.979492	1471.690552
2674.583008	1521.521851
2673.185547	1562.385132
2671.789063	1581.760498
2670.391602	1574.293457
2668.993164	1586.504150
2667.595703	1511.084961
2666.197266	1548.333862
2664.798828	1573.055176
2663.400391	1594.192261
2662.000977	1588.517944
2660.601563	1488.161011
2659.202148	1530.735962
2657.801758	1503.647583
2656.401367	1526.562500
2655.000977	1536.972656
2653.600586	1527.746460
2652.199219	1566.702393
2650.797852	1518.224731
2649.396484	1557.167114
2647.995117	1476.609985
2646.592773	1547.639038
2645.190430	1547.334229
2643.787109	1506.036743
2642.384766	1530.687378
2640.981445	1492.972412
2639.578125	1601.333984
2638.173828	1503.069702
2636.769531	1545.506470
2635.365234	1513.158569
2633.960938	1541.337769
2632.555664	1523.239258
2631.150391	1492.693726
2629.745117	1517.302490
2628.339844	1522.338745
2626.933594	1564.712646
2625.527344	1573.292847
2624.121094	1510.774414
2622.713867	1489.152100
2621.306641	1556.372437
2619.899414	1470.801636
2618.492188	1497.151245
2617.083984	1500.407349
2615.675781	1535.616943
2614.266602	1524.664551
2612.858398	1556.306152
2611.449219	1479.707275
2610.040039	1475.867676
2608.629883	1482.670532
2607.220703	1445.141235
2605.810547	1483.858276
2604.399414	1494.200317
2602.989258	1430.108765
2601.578125	1490.067017
2600.166992	1518.115845
2598.754883	1512.502930
2597.343750	1570.638428
2595.930664	1474.727783
2594.518555	1504.527100
2593.106445	1482.993896
2591.693359	1498.625000
2590.280273	1521.325806
2588.866211	1547.554810
2587.452148	1419.932739
2586.038086	1493.905518
2584.624023	1479.469727
2583.208984	1532.194458
2581.794922	1464.750000
2580.378906	1508.624146
2578.963867	1501.261230
2577.547852	1490.369507
2576.131836	1495.371460
2574.715820	1496.841064
2573.298828	1459.484497
2571.881836	1526.244873
2570.464844	1543.584106
2569.047852	1463.910278
2567.629883	1562.371216
2566.211914	1556.773071
2564.793945	1514.160400
2563.375000	1503.286865
2561.956055	1539.991577
2560.537109	1527.355469
2559.118164	1527.053345
2557.698242	1505.619751
2556.278320	1522.927979
2554.857422	1526.147217
2553.437500	1510.005981
2552.016602	1541.379395
2550.595703	1490.057007
2549.173828	1510.868530
2547.752930	1482.433105
2546.330078	1519.061401
2544.908203	1527.549805
2543.485352	1595.788940
2542.063477	1475.988281
2540.639648	1514.345215
2539.216797	1540.391846
2537.792969	1466.331177
2536.369141	1546.804688
2534.945313	1476.282837
2533.520508	1435.624390
2532.095703	1496.754395
2530.670898	1442.073120
2529.245117	1427.755371
2527.819336	1537.952515
2526.393555	1523.621460
2524.967773	1504.036987
2523.541016	1538.791138
2522.114258	1484.166016
2520.687500	1511.902466
2519.260742	1490.583984
2517.833008	1537.571411
2516.405273	1414.705444
2514.976563	1400.420776
2513.547852	1489.402222
2512.119141	1464.609253
2510.690430	1530.799194
2509.261719	1472.774048
2507.832031	1489.969849
2506.402344	1480.932129
2504.971680	1471.897949
2503.541016	1468.110352
2502.110352	1462.576904
2500.679688	1476.263184
2499.248047	1495.184082
2497.816406	1445.989136
2496.384766	1519.034912
2494.953125	1466.363403
2493.520508	1493.997437
2492.087891	1486.721069
2490.655273	1496.893677
2489.221680	1360.542236
2487.788086	1442.237305
2486.354492	1506.463867
2484.919922	1500.934937
2483.485352	1434.406616
2482.050781	1552.615479
2480.616211	1515.720703
2479.180664	1558.966187
2477.745117	1450.682495
2476.309570	1572.276245
2474.873047	1483.181885
2473.437500	1495.070435
2472.000000	1489.552979
2470.563477	1511.874268
2469.125977	1469.827148
2467.688477	1546.055298
2466.250977	1460.549194
2464.812500	1453.305298
2463.374023	1529.490967
2461.935547	1435.350342
2460.497070	1506.296997
2459.057617	1521.630737
2457.618164	1490.067993
2456.177734	1564.433838
2454.738281	1583.218506
2453.297852	1503.064209
2451.857422	1438.559326
2450.416016	1459.092529
2448.974609	1557.674683
2447.533203	1489.728760
2446.091797	1482.496704
2444.649414	1503.004517
2443.207031	1506.171875
2441.764648	1471.214478
2440.321289	1535.025391
2438.877930	1562.434937
2437.434570	1596.760864
2435.990234	1470.043457
2434.546875	1511.298462
2433.101563	1450.419189
2431.657227	1512.427124
2430.211914	1487.904297
2428.766602	1523.933228
2427.321289	1534.006348
2425.875977	1502.577271
2424.429688	1486.719238
2422.983398	1488.151489
2421.536133	1482.670776
2420.089844	1537.662109
2418.642578	1540.810547
2417.194336	1545.684570
2415.747070	1510.842896
2414.298828	1545.068481
2412.849609	1439.475220
2411.401367	1471.975464
2409.952148	1502.737549
2408.502930	1555.911621
2407.052734	1491.790649
2405.603516	1500.114624
2404.152344	1449.821655
2402.703125	1502.963501
2401.251953	1519.896118
2399.800781	1497.195435
2398.349609	1502.064453
2396.898438	1491.431519
2395.445313	1503.187012
2393.994141	1516.659302
2392.541016	1514.635498
2391.087891	1473.033325
2389.634766	1434.888550
2388.181641	1549.852051
2386.728516	1461.832764
2385.275391	1506.246948
2383.820313	1502.508057
2382.365234	1469.551392
2380.910156	1448.636841
2379.455078	1453.501831
2378.000000	1545.969849
2376.544922	1502.726074
2375.089844	1404.553589
2373.632813	1478.091919
2372.175781	1488.094849
2370.718750	1444.896851
2369.261719	1436.029785
2367.804688	1487.203247
2366.347656	1457.751099
2364.888672	1424.881348
2363.429688	1472.597412
2361.972656	1417.455933
2360.513672	1429.168091
2359.054688	1430.595703
2357.593750	1507.392334
2356.134766	1496.815430
2354.673828	1433.162476
2353.214844	1472.250122
2351.753906	1401.781128
2350.292969	1440.859131
2348.832031	1437.149292
2347.369141	1424.887939
2345.908203	1441.705078
2344.445313	1441.416748
2342.984375	1410.356934
2341.521484	1416.911499
2340.058594	1457.640259
2338.593750	1462.473999
2337.130859	1414.353027
2335.667969	1432.855957
2334.203125	1398.419800
2332.738281	1425.453979
2331.273438	1445.650146
2329.808594	1431.709229
2328.343750	1458.720215
2326.878906	1366.316895
2325.412109	1342.167480
2323.945313	1394.756226
2322.478516	1391.067505
2321.011719	1366.927246
2319.544922	1399.030640
2318.078125	1380.009521
2316.611328	1381.436523
2315.142578	1422.032471
2313.673828	1401.315308
2312.205078	1363.582886
2310.736328	1365.011597
2309.267578	1356.229736
2307.798828	1374.672607
2306.328125	1399.911865
2304.859375	1428.542236
2303.388672	1348.341553
2301.917969	1375.270752
2300.447266	1400.489380
2298.974609	1376.418579
2297.503906	1467.885498
2296.031250	1374.168091
2294.560547	1373.892578
2293.087891	1382.106567
2291.615234	1366.551147
2290.142578	1339.121216
2288.667969	1420.303711
2287.195313	1318.225342
2285.720703	1341.707886
2284.246094	1400.794434
2282.773438	1410.686523
2281.296875	1323.948364
2279.822266	1379.612915
2278.347656	1428.477051
2276.871094	1367.199951
2275.396484	1356.762451
2273.919922	1447.938843
2272.443359	1383.308228
2270.966797	1352.559814
2269.488281	1347.210815
2268.011719	1365.553833
2266.533203	1346.669800
2265.056641	1348.090820
2263.578125	1349.511108
2262.099609	1418.561890
2260.619141	1384.468140
2259.140625	1340.247437
2257.662109	1360.255249
2256.181641	1351.534912
2254.701172	1373.221313
2253.220703	1356.057983
2251.740234	1382.799805
2250.259766	1370.705444
2248.777344	1405.872070
2247.296875	1370.154419
2245.814453	1413.742065
2244.332031	1356.109863
2242.849609	1350.778076
2241.367188	1397.715210
2239.884766	1346.863525
2238.400391	1395.467773
2236.917969	1432.257202
2235.433594	1477.455200
2233.949219	1381.151123
2232.464844	1374.137329
2230.978516	1394.064697
2229.494141	1309.618530
2228.009766	1349.746338
2226.523438	1351.157349
2225.037109	1350.885498
2223.550781	1404.436279
2222.064453	1400.790283
2220.576172	1382.014160
2219.089844	1423.759644
2217.601563	1391.541382
2216.115234	1350.934814
2214.626953	1436.339111
2213.138672	1353.750000
2211.648438	1370.269897
2210.160156	1403.572144
2208.669922	1423.432373
2207.181641	1448.319214
2205.691406	1461.450562
2204.201172	1383.988281
2202.710938	1427.317261
2201.218750	1361.631104
2199.728516	1351.297363
2198.236328	1371.139648
2196.744141	1347.401001
2195.251953	1313.618774
2193.759766	1452.395264
2192.267578	1426.979614
2190.775391	1363.060059
2189.281250	1352.740112
2187.787109	1411.052002
2186.294922	1301.989380
2184.800781	1375.346313
2183.304688	1349.976440
2181.810547	1321.271729
2180.316406	1411.301758
2178.820313	1365.877808
2177.324219	1399.031982
2175.828125	1400.420776
2174.332031	1385.100952
2172.835938	1399.855713
2171.337891	1436.316162
2169.841797	1365.894775
2168.343750	1415.702881
2166.845703	1403.733154
2165.347656	1343.373535
2163.849609	1409.840210
2162.351563	1411.223755
2160.851563	1397.596558
2159.353516	1413.988770
2157.853516	1422.038696
2156.353516	1366.748169
2154.853516	1384.802856
2153.353516	1376.192627
2151.851563	1355.925537
2150.351563	1337.332031
2148.849609	1363.703125
2147.347656	1433.346924
2145.845703	1401.433472
2144.343750	1441.088013
2142.839844	1397.539551
2141.337891	1352.345215
2139.833984	1337.104248
2138.330078	1449.899536
2136.826172	1413.033813
2135.322266	1469.258057
2133.818359	1412.462402
2132.314453	1378.949097
2130.808594	1328.838745
2129.302734	1399.980591
2127.796875	1424.603149
2126.291016	1444.235474
2124.785156	1419.047729
2123.279297	1402.166870
2121.771484	1415.155518
2120.263672	1380.036499
2118.757813	1349.906738
2117.250000	1434.192871
2115.740234	1415.667969
2114.232422	1418.696167
2112.724609	1431.665161
2111.214844	1413.151733
2109.705078	1364.831543
2108.195313	1377.803345
2106.685547	1385.802734
2105.175781	1420.284302
2103.664063	1386.896484
2102.154297	1413.090332
2100.642578	1397.915039
2099.130859	1399.285889
2097.619141	1389.080444
2096.107422	1373.919067
2094.595703	1426.536621
2093.082031	1396.499634
2091.570313	1430.915527
2090.056641	1357.937866
2088.542969	1418.773926
2087.029297	1476.282593
2085.513672	1414.896851
2084.000000	1449.273682
2082.484375	1328.506592
2080.968750	1376.086792
2079.455078	1385.705688
2077.937500	1467.890381
2076.421875	1434.613159
2074.906250	1398.051880
2073.388672	1336.780884
2071.873047	1410.668701
2070.355469	1400.496582
2068.837891	1367.266235
2067.320313	1385.105591
2065.800781	1389.764404
2064.283203	1432.286377
2062.763672	1389.200439
2061.244141	1400.437988
2059.724609	1433.059814
2058.205078	1409.739258
2056.685547	1458.792236
2055.164063	1417.388428
2053.644531	1420.388672
2052.123047	1395.445679
2050.601563	1431.314941
2049.080078	1394.879028
2047.558594	1376.526733
2046.035156	1425.516113
2044.513672	1403.880981
2042.990234	1385.537842
2041.466797	1413.158447
2039.943359	1499.842407
2038.419922	1337.115112
2036.896484	1402.455322
2035.371094	1421.849854
2033.847656	1429.759033
2032.322266	1395.043213
2030.796875	1406.232300
2029.271484	1404.307861
2027.744141	1395.830811
2026.218750	1364.425659
2024.691406	1485.333008
2023.164063	1398.254150
2021.636719	1365.230347
2020.109375	1471.333984
2018.582031	1381.038086
2017.054688	1377.485229
2015.525391	1465.529297
2013.996094	1393.277832
2012.468750	1365.199829
2010.939453	1443.384644
2009.408203	1439.822266
2007.878906	1374.170410
2006.347656	1368.989746
2004.818359	1414.443726
2003.287109	1432.118530
2001.755859	1439.990112
2000.224609	1446.226196
1998.691406	1413.292236
1997.160156	1442.374023
1995.626953	1407.822754
1994.093750	1392.857178
1992.560547	1402.357422
1991.027344	1364.574463
1989.494141	1372.446411
1987.960938	1409.648804
1986.425781	1494.086182
1984.890625	1396.042480
1983.355469	1429.959839
1981.820313	1424.783447
1980.285156	1382.165283
1978.750000	1448.617676
1977.212891	1422.285156
1975.675781	1392.709229
1974.138672	1371.278687
1972.601563	1439.305054
1971.064453	1364.215454
1969.527344	1438.718140
1967.988281	1376.661865
1966.451172	1399.131226
1964.912109	1382.599121
1963.373047	1448.915161
1961.833984	1489.219971
1960.292969	1402.860962
1958.753906	1409.068115
1957.212891	1376.320190
1955.671875	1423.097290
1954.130859	1409.828125
1952.589844	1480.909424
1951.048828	1371.953613
1949.505859	1413.829102
1947.964844	1384.361816
1946.421875	1463.493652
1944.878906	1425.926270
1943.335938	1443.455566
1941.792969	1402.668091
1940.248047	1386.187866
1938.705078	1345.428467
1937.160156	1453.607788
1935.615234	1490.533691
1934.070313	1393.145874
1932.525391	1397.714355
1930.978516	1405.515747
1929.433594	1444.038086
1927.886719	1366.139771
1926.339844	1386.873901
1924.792969	1331.643921
1923.246094	1441.242188
1921.699219	1407.023926
1920.150391	1358.283936
1918.601563	1349.932373
1917.052734	1383.559204
1915.503906	1389.732666
1913.955078	1415.268677
1912.406250	1423.046387
1910.855469	1377.588501
1909.306641	1391.821655
1907.755859	1409.273804
1906.205078	1454.124634
1904.654297	1361.955566
1903.101563	1368.122681
1901.550781	1430.676514
1899.998047	1444.880859
1898.447266	1378.556152
1896.894531	1391.155151
1895.339844	1452.042847
1893.787109	1414.727783
1892.234375	1462.712402
1890.679688	1470.457031
1889.125000	1454.071045
1887.570313	1461.814087
1886.015625	1480.808716
1884.460938	1401.738037
1882.906250	1435.201416
1881.349609	1418.839111
1879.792969	1370.353149
1878.236328	1456.806152
1876.679688	1398.697021
1875.123047	1411.254639
1873.566406	1451.095215
1872.007813	1468.451416
1870.449219	1392.737183
1868.890625	1437.369507
1867.332031	1456.321411
1865.773438	1435.176758
1864.214844	1446.105103
1862.654297	1362.458130
1861.093750	1381.409546
1859.533203	1450.022339
1857.972656	1417.686890
1856.412109	1425.404053
1854.851563	1436.320435
1853.289063	1423.218384
1851.728516	1418.124634
1850.166016	1480.244019
1848.603516	1454.341309
1847.039063	1410.853516
1845.476563	1448.946655
1843.914063	1447.050293
1842.349609	1493.113403
1840.785156	1468.832520
1839.220703	1503.686157
1837.656250	1421.897949
1836.091797	1408.827515
1834.525391	1413.329224
1832.958984	1500.854980
1831.392578	1368.051636
1829.826172	1386.922729
1828.259766	1483.973755
1826.693359	1408.687866
1825.125000	1422.753540
1823.558594	1486.248779
1821.990234	1396.659302
1820.421875	1429.846924
1818.853516	1470.989502
1817.285156	1462.720215
1815.714844	1451.268311
1814.144531	1433.450073
1812.576172	1398.122681
1811.005859	1439.229004
1809.433594	1454.850586
1807.863281	1460.917114
1806.292969	1482.891846
1804.720703	1517.583618
1803.148438	1464.787354
1801.576172	1407.242310
1800.003906	1472.133667
1798.431641	1459.115234
1796.857422	1477.884521
1795.285156	1472.814087
1793.710938	1442.330200
1792.136719	1413.446777
1790.562500	1436.973145
1788.986328	1449.377319
1787.412109	1403.051392
1785.835938	1450.367554
1784.259766	1475.453125
1782.683594	1443.425781
1781.107422	1420.926636
1779.531250	1422.219604
1777.955078	1469.482788
1776.376953	1429.558228
1774.798828	1479.969482
1773.220703	1432.137939
1771.642578	1441.346313
1770.064453	1399.876465
1768.484375	1480.333618
1766.906250	1459.450684
1765.326172	1546.192505
1763.746094	1417.710327
1762.166016	1523.408081
1760.583984	1437.687012
1759.003906	1451.622314
1757.421875	1463.970703
1755.841797	1523.733032
1754.259766	1420.698730
1752.675781	1483.605225
1751.093750	1511.733154
1749.511719	1399.288818
1747.927734	1525.320801
1746.343750	1465.016235
1744.759766	1434.725342
1743.175781	1407.602905
1741.591797	1505.130127
1740.005859	1528.480347
1738.421875	1495.046753
1736.835938	1449.013184
1735.250000	1480.242188
1733.664063	1468.904175
1732.076172	1484.358521
1730.490234	1466.722412
1728.902344	1477.445313
1727.316406	1499.187256
1725.728516	1525.643311
1724.138672	1504.864624
1722.550781	1479.373047
1720.962891	1530.992310
1719.373047	1483.481567
1717.783203	1514.631714
1716.193359	1493.876221
1714.603516	1457.407593
1713.013672	1540.414673
1711.421875	1499.236694
1709.830078	1506.782837
1708.240234	1542.601685
1706.648438	1540.712280
1705.054688	1501.138184
1703.462891	1546.355103
1701.871094	1459.708618
1700.277344	1522.177002
1698.683594	1532.844849
1697.089844	1524.684814
1695.496094	1510.255005
1693.902344	1539.733887
1692.306641	1509.630371
1690.710938	1606.491333
1689.117188	1581.087280
1687.521484	1554.126953
1685.923828	1583.565796
1684.328125	1573.842041
1682.730469	1603.264526
1681.134766	1593.540527
1679.537109	1585.385498
1677.939453	1603.833984
1676.341797	1634.789917
1674.742188	1612.554565
1673.144531	1593.455811
1671.544922	1539.969604
1669.945313	1599.048340
1668.345703	1548.708496
1666.746094	1576.511963
1665.144531	1608.990112
1663.544922	1555.555542
1661.943359	1594.270264
1660.341797	1637.652344
1658.740234	1574.879761
1657.138672	1526.177734
1655.535156	1627.273560
1653.933594	1633.175781
1652.330078	1542.384155
1650.726563	1613.788330
1649.123047	1635.278320
1647.519531	1608.443726
1645.914063	1619.017944
1644.310547	1623.356079
1642.705078	1640.153076
1641.099609	1579.079224
1639.494141	1630.131226
1637.888672	1625.123291
1636.281250	1593.660034
1634.675781	1646.233032
1633.068359	1635.001831
1631.460938	1637.773315
1629.853516	1654.538818
1628.244141	1605.999878
1626.636719	1614.992920
1625.027344	1582.022705
1623.417969	1550.619873
1621.808594	1651.269287
1620.199219	1596.568604
1618.589844	1616.423096
1616.978516	1609.877686
1615.369141	1612.647705
1613.757813	1542.482178
1612.146484	1580.948608
1610.535156	1600.785278
1608.921875	1598.901978
1607.310547	1587.716309
1605.697266	1588.936646
1604.083984	1570.008301
1602.470703	1614.618652
1600.857422	1507.387329
1599.242188	1548.894165
1597.628906	1567.155151
1596.013672	1571.474243
1594.398438	1560.312134
1592.783203	1553.797363
1591.167969	1528.717773
1589.550781	1599.560303
1587.935547	1555.921753
1586.318359	1605.080444
1584.701172	1556.820679
1583.083984	1500.852539
1581.466797	1515.994019
1579.847656	1555.849609
1578.230469	1578.696655
1576.611328	1545.935913
1574.992188	1520.909180
1573.373047	1511.330322
1571.751953	1549.601440
1570.132813	1482.925415
1568.511719	1519.643677
1566.890625	1641.182007
1565.269531	1556.022583
1563.648438	1538.738525
1562.027344	1546.125732
1560.404297	1562.756836
1558.783203	1543.941040
1557.160156	1529.754761
1555.537109	1540.217651
1553.912109	1509.098999
1552.289063	1487.230591
1550.664063	1480.763794
1549.041016	1506.617188
1547.416016	1504.764648
1545.791016	1539.831909
1544.164063	1534.897095
1542.539063	1543.803101
1540.912109	1452.778809
1539.287109	1529.326538
1537.660156	1453.709961
1536.033203	1527.152710
1534.404297	1491.505127
1532.777344	1492.729980
1531.148438	1503.166504
1529.519531	1528.949585
1527.890625	1554.721802
1526.261719	1534.449707
1524.632813	1483.503418
1523.001953	1530.742065
1521.373047	1502.819946
1519.742188	1533.169800
1518.111328	1486.864380
1516.478516	1515.672241
1514.847656	1519.952515
1513.214844	1534.954224
1511.583984	1505.533936
1509.951172	1515.938477
1508.318359	1524.807617
1506.683594	1486.223999
1505.050781	1562.428345
1503.416016	1517.732910
1501.783203	1433.285034
1500.148438	1486.512329
1498.511719	1498.433960
1496.876953	1496.592285
1495.242188	1477.939209
1493.605469	1529.584351
1491.968750	1455.933350
1490.332031	1492.287231
1488.695313	1472.123169
1487.058594	1548.154419
1485.419922	1474.560791
1483.781250	1471.200317
1482.142578	1475.470215
1480.503906	1499.569824
1478.865234	1534.335571
1477.226563	1518.766113
1475.585938	1420.877563
1473.945313	1461.734619
1472.304688	1528.480957
1470.664063	1497.689453
1469.023438	1465.387451
1467.380859	1527.521973
1465.740234	1521.111938
1464.097656	1417.276245
1462.455078	1529.607422
1460.812500	1485.158691
1459.167969	1586.779053
1457.525391	1524.084229
1455.880859	1540.493164
1454.236328	1465.670898
1452.591797	1545.928711
1450.947266	1547.124756
1449.302734	1533.125854
1447.656250	1450.771606
1446.009766	1550.709595
1444.363281	1427.386597
1442.716797	1498.442017
1441.070313	1422.235107
1439.421875	1453.805664
1437.775391	1536.948364
1436.126953	1489.602295
1434.478516	1471.091064
1432.830078	1496.559448
1431.179688	1452.283203
1429.531250	1524.729248
1427.880859	1515.317749
1426.230469	1549.845215
1424.580078	1508.623901
1422.929688	1502.250122
1421.279297	1480.738403
1419.626953	1494.051514
1417.974609	1543.680786
1416.322266	1469.215454
1414.669922	1530.931152
1413.017578	1550.271973
1411.363281	1528.776855
1409.710938	1537.527100
1408.056641	1543.250488
1406.402344	1533.859497
1404.748047	1494.254883
1403.091797	1578.532593
1401.437500	1507.219971
1399.781250	1481.234863
1398.125000	1396.385986
1396.468750	1492.687378
1394.812500	1502.936768
1393.154297	1479.991455
1391.498047	1490.239014
1389.839844	1465.797729
1388.181641	1522.782715
1386.523438	1489.300293
1384.865234	1431.718628
1383.205078	1538.397583
1381.544922	1498.906982
1379.884766	1486.543091
1378.224609	1453.102905
1376.564453	1488.929321
1374.904297	1407.337036
1373.242188	1477.769531
1371.580078	1494.008911
1369.919922	1474.139893
1368.255859	1475.333984
1366.593750	1455.477051
1364.931641	1489.746338
1363.267578	1505.965698
1361.603516	1480.104004
1359.939453	1452.750854
1358.275391	1471.971436
1356.611328	1497.190552
1354.945313	1501.379761
1353.279297	1429.012817
1351.613281	1493.244385
1349.947266	1471.924072
1348.281250	1458.113281
1346.615234	1471.304565
1344.947266	1441.005249
1343.279297	1421.212646
1341.611328	1384.941040
1339.943359	1515.022339
1338.275391	1453.276123
1336.605469	1431.999512
1334.935547	1494.596802
1333.267578	1425.407349
1331.597656	1513.427734
1329.925781	1480.182861
1328.255859	1455.929688
1326.583984	1554.359985
1324.912109	1435.872192
1323.240234	1465.477417
1321.568359	1424.801636
1319.896484	1455.891235
1318.224609	1377.873535
1316.550781	1456.771729
1314.876953	1423.600830
1313.203125	1480.053589
1311.529297	1430.466553
1309.853516	1480.922363
1308.179688	1477.625000
1306.503906	1487.759033
1304.828125	1468.050293
1303.152344	1433.433716
1301.474609	1401.814209
1299.798828	1462.648560
1298.121094	1445.942749
1296.443359	1415.830688
1294.765625	1428.942261
1293.087891	1506.106079
1291.410156	1519.192871
1289.730469	1444.417725
1288.050781	1476.865967
1286.371094	1430.411865
1284.691406	1467.313599
1283.011719	1449.149780
1281.332031	1468.181519
1279.650391	1429.204224
1277.968750	1480.943481
1276.287109	1376.570313
1274.605469	1459.510376
1272.921875	1439.884644
1271.240234	1488.606445
1269.556641	1464.526855
1267.873047	1477.582520
1266.189453	1474.300903
1264.505859	1432.426636
1262.820313	1449.932739
1261.134766	1439.239990
1259.451172	1404.816650
1257.765625	1394.137817
1256.078125	1459.086792
1254.392578	1424.680786
1252.705078	1507.381958
1251.019531	1490.762573
1249.332031	1403.035400
1247.642578	1390.888672
1245.955078	1455.755493
1244.267578	1451.005615
1242.578125	1481.785156
1240.888672	1456.311768
1239.199219	1419.011597
1237.509766	1473.447876
1235.818359	1354.811890
1234.128906	1426.983398
1232.437500	1407.461792
1230.746094	1432.291748
1229.054688	1402.432495
1227.363281	1444.982788
1225.669922	1440.245239
1223.976563	1401.541870
1222.283203	1401.245117
1220.589844	1420.139404
1218.896484	1440.501465
1217.203125	1477.086670
1215.507813	1408.910034
1213.812500	1415.986450
1212.117188	1486.470703
1210.421875	1425.707031
1208.726563	1422.456787
1207.029297	1515.000610
1205.332031	1433.641235
1203.636719	1498.154297
1201.937500	1471.326294
1200.240234	1484.266724
1198.542969	1439.786743
1196.843750	1423.291016
1195.144531	1467.135742
1193.445313	1438.870972
1191.746094	1487.106445
1190.046875	1452.966797
1188.345703	1460.010132
1186.644531	1484.690186
1184.943359	1424.118408
1183.242188	1486.999023
1181.541016	1480.807251
1179.837891	1445.243164
1178.136719	1452.278564
1176.433594	1468.119629
1174.730469	1475.146973
1173.027344	1446.951416
1171.322266	1437.841064
1169.619141	1521.147583
1167.914063	1523.757690
1166.208984	1514.636597
1164.503906	1441.017944
1162.796875	1546.237061
1161.091797	1488.761353
1159.384766	1491.375000
1157.677734	1556.969360
1155.970703	1465.846924
1154.263672	1502.137207
1152.554688	1503.281738
1150.847656	1517.596680
1149.138672	1520.200439
1147.429688	1563.762085
1145.720703	1509.316650
1144.009766	1564.559570
1142.300781	1551.069824
1140.589844	1552.201538
1138.878906	1554.794067
1137.167969	1542.775635
1135.455078	1612.558838
1133.744141	1569.865967
1132.031250	1578.292114
1130.318359	1611.529907
1128.605469	1584.917725
1126.892578	1599.171387
1125.179688	1654.265015
1123.464844	1541.610229
1121.750000	1567.529175
1120.035156	1619.678345
1118.320313	1633.908936
1116.605469	1605.873657
1114.888672	1617.187134
1113.171875	1645.975098
1111.455078	1594.653931
1109.738281	1667.114136
1108.021484	1688.594238
1106.302734	1638.751831
1104.585938	1652.953491
1102.867188	1595.865845
1101.148438	1650.794800
1099.429688	1640.264038
1097.708984	1632.645386
1095.990234	1638.111572
1094.269531	1588.353394
1092.548828	1621.431519
1090.828125	1608.012573
1089.105469	1671.569946
1087.384766	1658.145874
1085.662109	1620.049194
1083.939453	1586.322754
1082.216797	1591.788696
1080.492188	1653.830444
1078.769531	1637.523071
1077.044922	1583.519775
1075.320313	1542.587524
1073.595703	1548.056396
1071.871094	1585.404785
1070.146484	1531.458252
1068.419922	1610.802368
1066.693359	1525.011597
1064.966797	1507.310791
1063.240234	1563.446899
1061.513672	1534.166504
1059.785156	1477.405273
1058.056641	1484.323486
1056.328125	1486.899292
1054.599609	1470.674805
1052.871094	1464.577515
1051.140625	1449.809937
1049.412109	1488.519775
1047.681641	1420.293579
1045.951172	1497.995605
1044.218750	1463.013916
1042.488281	1467.033081
1040.755859	1437.847168
1039.023438	1436.096558
1037.291016	1406.929443
1035.558594	1452.795044
1033.826172	1381.807495
1032.091797	1446.405640
1030.357422	1444.654663
1028.623047	1431.372559
1026.888672	1418.096069
1025.154297	1420.674438
1023.417969	1378.594971
1021.681641	1398.463379
1019.945313	1451.441284
1018.208984	1405.063110
1016.472656	1354.386841
1014.734375	1434.680908
1012.998047	1414.232300
1011.259766	1398.107422
1009.521484	1346.037476
1007.783203	1437.766479
1006.042969	1420.209106
1004.302734	1432.839478
1002.564453	1373.622070
1000.824219	1404.931763
999.082031	1463.516235
997.341797	1411.509766
995.599609	1323.635010
993.859375	1360.669434
992.117188	1363.247925
990.373047	1375.868164
988.630859	1293.813477
986.886719	1370.976440
985.144531	1330.537109
983.400391	1403.358521
981.656250	1350.031006
979.910156	1351.174438
978.166016	1270.662598
976.419922	1331.976196
974.673828	1297.324463
972.927734	1332.836792
971.181641	1302.493408
969.433594	1363.747314
967.687500	1290.489258
965.939453	1304.516357
964.191406	1341.418701
962.441406	1261.063354
960.693359	1330.836914
958.943359	1330.551270
957.195313	1354.556396
955.445313	1331.408936
953.693359	1312.556030
951.943359	1283.715454
950.191406	1273.446533
948.441406	1301.719604
946.689453	1334.261597
944.935547	1285.466919
943.183594	1350.805542
941.431641	1284.914917
939.677734	1361.631714
937.923828	1250.151367
936.169922	1285.512329
934.414063	1308.034058
932.660156	1257.893188
930.904297	1244.804565
929.148438	1277.288086
927.392578	1325.417725
925.636719	1285.279175
923.878906	1255.119141
922.123047	1308.913208
920.365234	1273.071167
918.607422	1264.264771
916.849609	1292.429199
915.089844	1262.299561
913.330078	1203.758789
911.572266	1281.649292
909.812500	1279.953003
908.050781	1262.634277
906.291016	1255.262695
904.529297	1247.894287
902.767578	1213.560913
901.005859	1244.519165
899.244141	1237.157593
897.482422	1269.515747
895.718750	1257.897339
893.957031	1237.776733
892.193359	1192.149048
890.427734	1223.071533
888.664063	1231.309814
886.898438	1199.878906
885.134766	1249.191650
883.369141	1240.426514
881.603516	1201.935303
879.835938	1133.737061
878.070313	1209.908081
876.302734	1182.766357
874.535156	1215.044800
872.767578	1250.137451
871.000000	1262.593018
869.230469	1185.987915
867.460938	1209.757935
865.693359	1230.691528
863.921875	1250.203491
862.152344	1142.594971
860.382813	1218.599365
858.611328	1209.866089
856.839844	1225.131104
855.068359	1219.222290
853.296875	1185.099365
851.523438	1173.559448
849.751953	1185.998291
847.978516	1178.692871
846.205078	1168.571167
844.431641	1186.640137
842.656250	1162.430908
840.880859	1155.136475
839.107422	1225.307129
837.332031	1198.288818
835.554688	1183.952271
833.779297	1110.507324
832.001953	1196.105713
830.226563	1194.440552
828.447266	1163.237915
826.669922	1174.236938
824.892578	1166.953491
823.113281	1190.597656
821.333984	1200.177979
819.554688	1147.931641
817.775391	1202.468994
815.996094	1193.782471
814.214844	1173.866333
812.435547	1231.170288
810.654297	1200.026245
808.871094	1181.524780
807.089844	1172.851807
805.306641	1164.182495
803.525391	1172.344727
801.742188	1162.276978
799.958984	1181.649780
798.173828	1184.197021
796.390625	1228.776489
794.605469	1145.862915
792.820313	1222.642944
791.035156	1188.773560
789.248047	1184.316528
787.462891	1174.263184
785.675781	1197.796997
783.888672	1212.926758
782.101563	1202.873413
780.314453	1145.279053
778.525391	1185.575562
776.736328	1153.169922
774.947266	1147.330322
773.158203	1137.301636
771.369141	1113.308472
769.578125	1247.138306
767.789063	1207.772583
765.998047	1167.027954
764.207031	1168.170776
762.414063	1096.754272
760.623047	1123.022705
758.830078	1153.464111
757.037109	1156.003052
755.244141	1143.205078
753.451172	1155.501953
751.656250	1144.103027
749.863281	1171.719971
748.068359	1105.997559
746.271484	1182.353027
744.476563	1157.034546
742.681641	1126.158813
740.884766	1130.089722
739.087891	1132.627563
737.291016	1128.208374
735.494141	1182.206055
733.695313	1170.825317
731.896484	1152.498291
730.097656	1124.449707
728.298828	1182.569946
726.500000	1147.580200
724.701172	1161.221313
722.900391	1142.915894
721.099609	1106.568970
719.298828	1153.524658
717.496094	1171.315796
715.695313	1129.436035
713.892578	1159.709351
712.089844	1156.683716
710.287109	1113.447510
708.484375	1109.046753
706.679688	1169.790161
704.876953	1103.022095
703.072266	1105.553223
701.267578	1141.325684
699.460938	1150.771240
697.656250	1115.908569
695.849609	1111.513428
694.042969	1155.556641
692.236328	1113.797363
690.429688	1164.737305
688.621094	1147.888062
686.812500	1139.342285
685.005859	1216.508667
683.195313	1159.578125
681.386719	1145.507935
679.578125	1186.703613
677.767578	1121.529297
675.957031	1161.331177
674.146484	1180.406738
672.333984	1135.980591
670.523438	1153.673218
668.710938	1152.042480
666.898438	1155.929810
665.085938	1139.129150
663.273438	1213.335815
661.458984	1177.230835
659.644531	1119.090576
657.830078	1173.962402
656.015625	1144.777344
654.201172	1156.923584
652.384766	1203.489258
650.570313	1197.720337
648.753906	1193.330200
646.935547	1235.729004
645.119141	1209.319702
643.300781	1143.032715
641.484375	1219.794189
639.666016	1167.282471
637.847656	1190.396118
636.027344	1199.756592
634.208984	1220.104980
632.388672	1166.264893
630.568359	1201.718750
628.748047	1226.172363
626.925781	1246.496948
625.105469	1181.717773
623.283203	1169.110229
621.460938	1197.665039
619.636719	1180.944580
617.814453	1231.424805
615.990234	1169.461182
614.167969	1200.732056
612.343750	1199.099609
610.517578	1255.011963
608.693359	1213.644043
606.867188	1220.226563
605.041016	1202.160522
603.214844	1264.867554
601.388672	1265.959961
599.562500	1227.370972
597.734375	1206.582764
595.906250	1278.807739
594.078125	1195.116333
592.250000	1174.348633
590.419922	1204.161865
588.591797	1269.491455
586.761719	1281.510010
584.931641	1294.889038
583.099609	1238.615723
581.269531	1272.478027
579.437500	1221.693970
577.605469	1265.098022
575.773438	1279.830078
573.941406	1302.740356
572.107422	1318.821411
570.273438	1293.989502
568.439453	1282.800659
566.605469	1328.859741
564.771484	1286.327393
562.935547	1321.466675
561.101563	1321.177490
559.265625	1314.079712
557.427734	1272.948853
555.591797	1279.475952
553.753906	1298.247803
551.917969	1295.242554
550.080078	1293.598755
548.240234	1241.637207
546.402344	1305.269165
544.562500	1277.796265
542.724609	1240.821777
540.884766	1206.580933
539.042969	1281.032227
537.203125	1280.751587
535.361328	1192.209473
533.519531	1164.796875
531.677734	1167.256226
529.835938	1183.284058
527.994141	1214.228394
526.150391	1196.329346
524.306641	1167.589355
522.462891	1182.247070
520.619141	1184.698853
518.773438	1160.045532
516.927734	1182.824463
515.082031	1182.565063
513.236328	1151.156738
511.390625	1115.700195
509.542969	1188.555664
507.697266	1144.985718
505.849609	1101.434937
504.000000	1174.245361
502.152344	1198.333008
500.302734	1153.446655
498.455078	1192.399414
496.605469	1201.599121
494.753906	1148.633301
492.904297	1098.392822
491.052734	1157.584229
489.203125	1124.919434
487.351563	1115.221436
485.498047	1179.769287
483.646484	1122.828857
481.792969	1127.979370
479.939453	1131.778442
478.085938	1200.311646
476.232422	1139.371338
474.376953	1132.380615
472.523438	1129.436279
470.667969	1176.349854
468.812500	1112.773682
466.955078	1107.141479
465.099609	1147.295898
463.242188	1110.693726
461.384766	1127.947510
459.527344	1139.810791
457.667969	1138.214722
455.810547	1172.937256
453.951172	1132.334839
452.091797	1138.808350
450.232422	1174.851929
448.371094	1130.243774
446.511719	1129.995117
444.650391	1147.209839
442.789063	1149.643433
440.927734	1135.963013
439.064453	1153.164795
437.201172	1146.200195
435.337891	1098.982788
433.474609	1112.156494
431.611328	1066.308472
429.748047	1104.961792
427.882813	1119.465942
426.017578	1092.411743
424.152344	1151.135010
422.285156	1070.493896
420.419922	1009.980652
418.552734	1100.823853
416.685547	1089.870117
414.818359	1155.221802
412.949219	1085.374756
411.082031	1075.769409
409.212891	1078.207764
407.343750	1092.681763
405.472656	1068.372437
403.603516	1062.789551
401.732422	1094.632324
399.861328	1090.382202
397.990234	1088.805664
396.119141	1068.530640
394.246094	1148.416992
392.375000	1089.420410
390.501953	1074.497559
388.628906	1042.232788
386.753906	1068.686646
384.880859	1081.789673
383.005859	1041.542969
381.130859	1015.980164
379.253906	1017.088928
377.378906	1062.176758
375.501953	1061.942261
373.626953	1071.032715
371.748047	990.886047
369.871094	1051.918091
367.994141	1017.073364
366.115234	1016.848694
364.236328	1049.890625
362.357422	1036.354980
360.478516	1018.835022
358.597656	1019.939697
356.716797	1047.633423
354.835938	1023.476501
352.955078	1031.223633
351.074219	1030.995728
349.191406	1036.081055
347.308594	1013.275696
345.425781	1009.068481
343.542969	966.367676
341.658203	1035.164917
339.775391	951.345032
337.890625	977.665527
336.005859	916.441589
334.119141	1066.072388
332.234375	999.553162
330.347656	994.030518
328.460938	971.284180
326.574219	986.966675
324.685547	1007.940125
322.798828	978.584595
320.910156	975.720154
319.021484	988.740295
317.132813	942.205078
315.242188	996.240662
313.351563	912.687683
311.460938	981.252563
309.570313	955.914368
307.679688	954.380798
305.787109	1009.675049
303.896484	981.704651
302.003906	974.882202
300.111328	977.307556
298.216797	986.333740
296.322266	958.393005
294.429688	922.545776
292.535156	955.329163
290.638672	916.859924
288.744141	937.759521
286.847656	941.507507
284.951172	982.167419
283.054688	995.130127
281.158203	992.273865
279.259766	967.021851
277.361328	978.661926
275.462891	987.663025
273.564453	976.911133
271.666016	959.582458
269.765625	972.529602
267.865234	985.470886
265.964844	970.782532
264.064453	967.936768
262.162109	1007.167053
260.261719	939.901489
258.359375	1001.462830
256.457031	953.937744
254.552734	1027.291504
252.650391	1008.676025
250.746094	969.059326
248.841797	993.787231
246.937500	1039.504150
245.031250	990.721252
243.126953	966.886536
241.220703	1007.332214
239.314453	966.456787
237.406250	1054.082153
235.500000	1026.322021
233.591797	1001.195007
231.683594	1095.304932
229.775391	1063.624146
227.865234	1008.384827
225.957031	1035.655884
224.046875	1057.678711
222.136719	1058.752197
220.226563	1059.825073
218.314453	1073.978760
216.402344	1127.361450
214.490234	1125.802979
212.578125	1113.787109
210.666016	1082.171997
208.751953	1109.371338
206.839844	1101.286133
204.925781	1118.020264
203.009766	1196.119751
201.095703	1095.328613
