#Wave		#Intensity
4001.644531	936.865967
4000.500000	864.799377
3999.354492	899.575745
3998.209961	853.567017
3997.064453	953.811646
3995.918945	892.534119
3994.772461	903.279541
3993.626953	868.210876
3992.480469	896.405090
3991.333984	839.544128
3990.187500	941.861084
3989.040039	935.148743
3987.893555	911.003357
3986.746094	915.194214
3985.598633	912.847656
3984.451172	851.689514
3983.302734	892.912048
3982.154297	894.925598
3981.006836	899.115356
3979.857422	866.300781
3978.708984	946.662415
3977.560547	933.433594
3976.411133	889.753479
3975.261719	920.040588
3974.112305	932.919495
3972.961914	897.960327
3971.811523	871.709351
3970.662109	925.885254
3969.511719	882.254333
3968.360352	871.229065
3967.209961	871.069031
3966.058594	914.345825
3964.907227	901.149170
3963.755859	809.799744
3962.604492	872.599670
3961.452148	928.865723
3960.299805	896.147278
3959.147461	856.932495
3957.995117	891.479797
3956.841797	865.292114
3955.689453	860.796570
3954.536133	843.295471
3953.382813	860.480103
3952.228516	855.987793
3951.075195	896.996948
3949.920898	918.494629
3948.766602	892.335388
3947.612305	946.307861
3946.458008	926.648254
3945.302734	878.855103
3944.147461	865.707825
3942.992188	932.628601
3941.836914	854.572021
3940.680664	912.817871
3939.525391	839.118896
3938.369141	893.021484
3937.211914	882.047729
3936.055664	875.401001
3934.898438	937.911377
3933.742188	942.060181
3932.584961	836.032532
3931.426758	900.675476
3930.269531	894.031189
3929.111328	844.207336
3927.953125	906.654297
3926.794922	824.471863
3925.636719	871.793945
3924.477539	839.270813
3923.319336	869.315857
3922.160156	864.842346
3921.000000	890.558899
3919.840820	942.136963
3918.680664	844.964905
3917.520508	905.152771
3916.360352	937.307007
3915.200195	872.504395
3914.040039	844.342468
3912.878906	839.879822
3911.717773	912.931885
3910.556641	886.930725
3909.394531	908.290771
3908.233398	923.187073
3907.071289	916.562256
3905.909180	892.730591
3904.746094	843.098572
3903.583984	877.348999
3902.420898	902.986877
3901.257813	868.427246
3900.094727	872.565491
3898.931641	898.190002
3897.767578	850.759949
3896.603516	869.934937
3895.439453	848.298645
3894.275391	923.294006
3893.111328	936.004517
3891.946289	925.099915
3890.781250	860.549011
3889.616211	836.788574
3888.451172	862.376770
3887.285156	898.679626
3886.119141	894.224976
3884.953125	898.348083
3883.787109	840.304199
3882.620117	850.865356
3881.454102	919.279236
3880.287109	829.126831
3879.120117	880.383057
3877.952148	822.395874
3876.785156	843.656677
3875.617188	944.121582
3874.449219	779.131104
3873.281250	883.850891
3872.112305	883.687744
3870.944336	849.296021
3869.775391	868.389221
3868.606445	848.982361
3867.436523	857.377991
3866.267578	902.111450
3865.097656	829.276306
3863.927734	863.313782
3862.757813	884.519470
3861.587891	841.633545
3860.416992	901.278564
3859.246094	847.728638
3858.075195	843.302124
3856.904297	866.626282
3855.732422	872.868591
3854.560547	844.968445
3853.388672	864.012573
3852.216797	895.847412
3851.044922	857.295471
3849.872070	904.044983
3848.699219	856.978577
3847.526367	897.316589
3846.353516	843.875732
3845.179688	875.678772
3844.005859	849.954346
3842.832031	886.004028
3841.658203	845.381165
3840.484375	862.257019
3839.309570	891.898499
3838.134766	855.553406
3836.959961	883.057190
3835.785156	942.462524
3834.609375	901.874023
3833.434570	867.680481
3832.258789	850.509766
3831.082031	918.380554
3829.906250	922.461609
3828.729492	877.663940
3827.552734	858.379211
3826.375977	875.214783
3825.199219	841.070190
3824.021484	872.767334
3822.844727	830.143188
3821.666992	836.357727
3820.489258	836.202881
3819.310547	880.609009
3818.131836	912.269287
3816.954102	863.313599
3815.774414	863.153748
3814.595703	837.549316
3813.416992	877.673950
3812.237305	885.989746
3811.057617	796.819275
3809.877930	879.305115
3808.697266	929.984192
3807.516602	851.445068
3806.336914	885.169434
3805.155273	901.943298
3803.974609	838.270813
3802.792969	876.211670
3801.612305	842.192261
3800.430664	846.267517
3799.248047	901.107910
3798.066406	886.136658
3796.883789	830.995605
3795.701172	964.029907
3794.518555	900.439941
3793.335938	819.966919
3792.152344	815.589050
3790.968750	883.038879
3789.785156	882.875122
3788.601563	908.052429
3787.417969	876.213623
3786.233398	865.496277
3785.048828	882.220337
3783.864258	905.268738
3782.678711	805.940552
3781.494141	854.307251
3780.308594	936.400146
3779.123047	896.162659
3777.937500	919.186890
3776.750977	769.359985
3775.564453	840.870300
3774.377930	895.497681
3773.191406	859.518188
3772.004883	903.590332
3770.817383	857.093262
3769.629883	861.145142
3768.442383	873.615845
3767.254883	871.348999
3766.066406	837.518127
3764.878906	833.154785
3763.690430	885.588440
3762.500977	914.867981
3761.312500	843.204468
3760.123047	876.685669
3758.933594	884.930725
3757.744141	909.985352
3756.554688	882.500793
3755.364258	915.949707
3754.173828	873.771301
3752.983398	850.508728
3751.792969	791.561035
3750.602539	902.673706
3749.411133	910.901367
3748.219727	862.467468
3747.028320	818.247681
3745.835938	866.342285
3744.644531	820.040833
3743.452148	872.310974
3742.259766	886.824341
3741.067383	838.448669
3739.874023	871.824524
3738.680664	871.662415
3737.487305	936.443848
3736.293945	906.945862
3735.100586	919.342224
3733.906250	856.357727
3732.711914	814.330566
3731.517578	920.922363
3730.323242	899.824890
3729.127930	872.458557
3727.932617	907.857483
3726.737305	886.774048
3725.541992	886.609070
3724.345703	857.174744
3723.150391	850.744385
3721.954102	932.091858
3720.757813	852.517273
3719.560547	912.942871
3718.364258	885.619507
3717.166992	787.302856
3715.969727	839.354980
3714.771484	893.475281
3713.574219	870.350037
3712.375977	832.625916
3711.177734	922.185791
3709.979492	815.627808
3708.780273	875.958801
3707.582031	909.159302
3706.382813	890.226440
3705.183594	938.002991
3703.983398	812.784485
3702.784180	875.143311
3701.583984	820.814819
3700.383789	889.397522
3699.182617	876.736755
3697.982422	870.327026
3696.781250	872.246582
3695.580078	803.399597
3694.378906	838.626160
3693.177734	805.180725
3691.975586	877.837036
3690.773438	875.593628
3689.571289	865.033386
3688.369141	956.348938
3687.166016	954.092041
3685.962891	885.332031
3684.759766	849.843384
3683.556641	820.600342
3682.352539	789.291077
3681.149414	836.907898
3679.945313	849.209656
3678.740234	880.190002
3677.536133	834.364136
3676.331055	854.959900
3675.126953	890.071289
3673.920898	885.756531
3672.715820	817.149780
3671.510742	831.512451
3670.304688	870.748291
3669.098633	874.731445
3667.891602	899.437439
3666.685547	818.459656
3665.478516	830.736816
3664.271484	863.722168
3663.064453	863.560974
3661.857422	873.752258
3660.649414	896.360413
3659.441406	861.007629
3658.233398	900.164368
3657.025391	858.617126
3655.816406	895.691040
3654.607422	841.750977
3653.398438	804.373413
3652.189453	901.391541
3650.980469	847.480469
3649.770508	880.388428
3648.560547	890.555176
3647.350586	886.257080
3646.139648	838.585388
3644.929688	890.056091
3643.718750	846.530884
3642.507813	854.629944
3641.295898	852.406311
3640.084961	846.056335
3638.873047	932.551208
3637.661133	874.619019
3636.449219	857.956360
3635.236328	886.664063
3634.023438	804.033325
3632.810547	865.720154
3631.597656	877.923401
3630.384766	799.461487
3629.170898	807.552307
3627.957031	797.102783
3626.743164	881.385437
3625.529297	895.633057
3624.314453	862.528870
3623.099609	907.646973
3621.884766	882.783936
3620.669922	855.872742
3619.454102	884.510620
3618.239258	816.476746
3617.023438	824.548889
3615.806641	902.516785
3614.590820	863.294067
3613.374023	883.683228
3612.157227	838.314636
3610.940430	813.505981
3609.723633	893.456726
3608.505859	889.182373
3607.288086	866.431213
3606.070313	827.266296
3604.852539	894.840149
3603.633789	906.984558
3602.415039	869.885620
3601.196289	857.415283
3599.977539	801.881775
3598.758789	887.851074
3597.539063	848.733276
3596.319336	815.779114
3595.099609	811.527649
3593.878906	862.598816
3592.659180	905.456604
3591.438477	878.660889
3590.217773	876.448425
3588.996094	886.521179
3587.775391	886.354980
3586.553711	912.794983
3585.332031	865.560364
3584.109375	873.581543
3582.887695	879.554138
3581.665039	789.405273
3580.442383	893.537354
3579.219727	805.463867
3577.996094	878.894714
3576.773438	864.424988
3575.549805	805.010803
3574.325195	906.999390
3573.101563	914.998901
3571.876953	922.995361
3570.652344	792.157104
3569.427734	855.287537
3568.203125	879.617615
3566.977539	867.209595
3565.752930	924.169983
3564.526367	881.162231
3563.300781	809.619812
3562.075195	797.234131
3560.848633	894.936279
3559.622070	786.743896
3558.395508	864.033142
3557.167969	916.844177
3555.940430	833.153015
3554.712891	820.776611
3553.485352	912.255310
3552.257813	861.186462
3551.029297	897.664063
3549.800781	869.003601
3548.572266	822.041016
3547.343750	840.195984
3546.114258	866.480042
3544.884766	841.913940
3543.655273	817.357117
3542.425781	857.860413
3541.195313	810.952576
3539.965820	829.088989
3538.734375	883.789063
3537.503906	877.528992
3536.273438	877.364075
3535.041992	844.710327
3533.810547	858.762756
3532.579102	919.495056
3531.346680	862.498779
3530.115234	858.278564
3528.882813	868.260437
3527.650391	859.984131
3526.416992	867.933960
3525.184570	894.128296
3523.951172	918.285583
3522.717773	845.150269
3521.483398	849.044067
3520.250000	885.351929
3519.015625	844.673462
3517.781250	889.069336
3516.545898	892.951721
3515.311523	830.025696
3514.076172	848.086182
3512.840820	819.594910
3511.605469	839.673767
3510.369141	849.630432
3509.133789	887.898926
3507.897461	853.354980
3506.660156	889.586548
3505.423828	851.012329
3504.186523	812.452637
3502.949219	856.753906
3501.711914	862.653381
3500.474609	894.809143
3499.236328	910.796692
3497.998047	864.185303
3496.759766	888.247498
3495.521484	884.043457
3494.282227	861.679138
3493.042969	817.129578
3491.803711	883.544006
3490.564453	881.360718
3489.324219	903.375793
3488.084961	903.205566
3486.844727	870.784119
3485.603516	864.574097
3484.363281	814.037537
3483.122070	870.291931
3481.880859	914.440002
3480.639648	900.171021
3479.397461	857.719360
3478.156250	797.166321
3476.914063	819.155334
3475.671875	891.443237
3474.428711	891.275208
3473.186523	889.095581
3471.943359	860.771851
3470.700195	778.167969
3469.456055	878.540771
3468.212891	878.375061
3466.968750	864.141968
3465.724609	847.904907
3464.479492	881.895813
3463.235352	913.865356
3461.990234	937.790344
3460.745117	903.481873
3459.499023	847.105347
3458.253906	883.071167
3457.007813	862.838501
3455.761719	840.607178
3454.515625	834.431030
3453.268555	816.224304
3452.021484	834.116028
3450.775391	841.977356
3449.527344	833.801086
3448.280273	855.687134
3447.032227	873.557739
3445.784180	917.463074
3444.536133	863.213745
3443.287109	810.987366
3442.039063	880.906311
3440.790039	856.719727
3439.541016	844.550049
3438.291016	854.395142
3437.041992	874.239197
3435.791992	872.073914
3434.541992	893.906799
3433.291016	845.752014
3432.041016	859.585449
3430.790039	815.452515
3429.539063	859.260559
3428.287109	873.083496
3427.036133	852.943176
3425.784180	828.816223
3424.532227	856.614319
3423.280273	830.499268
3422.027344	798.406006
3420.774414	870.097961
3419.521484	845.990356
3418.268555	843.835449
3417.014648	815.752808
3415.761719	829.557434
3414.507813	815.444275
3413.252930	865.124390
3411.999023	884.890686
3410.744141	882.730652
3409.489258	818.811890
3408.234375	892.356018
3406.978516	846.382935
3405.723633	838.258301
3404.467773	834.118225
3403.210938	822.018188
3401.955078	843.752441
3400.698242	859.509583
3399.441406	875.260681
3398.184570	908.905518
3396.927734	882.883240
3395.669922	797.227783
3394.412109	870.622620
3393.154297	870.457764
3391.896484	894.136536
3390.637695	826.423035
3389.378906	865.990906
3388.120117	899.586182
3386.861328	877.575623
3385.601563	889.319946
3384.341797	875.258484
3383.082031	841.358948
3381.822266	857.071228
3380.561523	852.941650
3379.300781	892.444214
3378.040039	854.601257
3376.779297	927.790222
3375.517578	868.151917
3374.256836	873.932495
3372.995117	842.065552
3371.732422	859.734497
3370.470703	825.901672
3369.208008	815.844055
3367.945313	853.306091
3366.682617	825.431946
3365.418945	860.898865
3364.155273	831.055054
3362.891602	830.897400
3361.627930	812.938232
3360.363281	850.358032
3359.099609	901.603943
3357.834961	901.432922
3356.569336	841.968384
3355.304688	841.808594
3354.039063	904.871338
3352.773438	794.081360
3351.507813	821.579956
3350.241211	902.381714
3348.975586	923.926636
3347.708984	823.086060
3346.442383	811.089111
3345.174805	842.504395
3343.907227	899.552856
3342.639648	907.271423
3341.372070	865.688110
3340.104492	859.608948
3338.835938	821.992798
3337.567383	849.428345
3336.298828	894.587524
3335.029297	872.746704
3333.760742	868.641541
3332.491211	821.212524
3331.221680	838.777161
3329.951172	862.240845
3328.681641	866.013428
3327.411133	836.331299
3326.139648	861.749390
3324.869141	896.993286
3323.597656	865.355347
3322.327148	853.392822
3321.054688	882.720154
3319.783203	864.862000
3318.510742	854.871460
3317.238281	909.724670
3315.965820	844.724060
3314.693359	879.917297
3313.419922	860.112671
3312.146484	909.032959
3310.873047	857.822632
3309.599609	871.397705
3308.325195	910.476624
3307.050781	853.409485
3305.776367	865.016113
3304.501953	855.045959
3303.226563	856.843994
3301.951172	868.443176
3300.675781	883.957947
3299.400391	823.041443
3298.124023	842.477295
3296.847656	893.247742
3295.571289	851.949158
3294.294922	830.247559
3293.017578	849.667114
3291.740234	872.993958
3290.462891	874.784790
3289.185547	851.138550
3287.907227	921.402100
3286.628906	823.431885
3285.350586	879.985291
3284.072266	920.875854
3282.792969	893.333557
3281.513672	748.537354
3280.234375	902.763428
3278.955078	863.518250
3277.674805	863.353760
3276.394531	900.294678
3275.114258	868.882385
3273.833984	913.616821
3272.552734	854.888733
3271.272461	829.357239
3269.990234	829.199158
3268.708984	909.019165
3267.426758	860.088074
3266.145508	920.372314
3264.862305	912.398560
3263.580078	875.189880
3262.296875	851.637085
3261.014648	865.113892
3259.731445	866.897034
3258.447266	841.411438
3257.164063	849.040344
3255.879883	807.992065
3254.595703	883.755249
3253.310547	934.188538
3252.026367	860.067871
3250.741211	898.813416
3249.456055	842.233704
3248.169922	919.862610
3246.884766	873.022217
3245.598633	917.567627
3244.312500	851.309143
3243.025391	866.692749
3241.739258	870.413086
3240.452148	866.361877
3239.165039	873.965088
3237.876953	937.876770
3236.589844	885.279846
3235.301758	887.051819
3234.013672	809.255981
3232.724609	911.936890
3231.436523	923.402283
3230.147461	872.797607
3228.857422	895.901062
3227.568359	895.729919
3226.278320	854.851624
3224.989258	843.059875
3223.698242	866.151184
3222.408203	842.737793
3221.117188	863.883301
3219.826172	873.401123
3218.535156	937.129395
3217.244141	925.335205
3215.952148	861.287598
3214.660156	909.500671
3213.368164	849.349976
3212.076172	868.531250
3210.783203	879.969177
3209.490234	883.668213
3208.197266	850.633850
3206.903320	796.350281
3205.610352	854.173584
3204.316406	886.856812
3203.022461	915.663879
3201.727539	888.448975
3200.432617	897.934265
3199.137695	834.050293
3197.842773	824.239258
3196.547852	885.839417
3195.251953	852.867310
3193.956055	823.766174
3192.660156	848.683289
3191.363281	865.877014
3190.067383	809.796753
3188.770508	944.582031
3187.472656	894.290161
3186.175781	876.776123
3184.877930	801.470398
3183.580078	909.186584
3182.282227	853.162170
3180.983398	872.253845
3179.684570	893.263306
3178.385742	896.941772
3177.086914	919.862793
3175.788086	836.953308
3174.488281	861.800598
3173.188477	878.945129
3171.887695	946.079163
3170.587891	855.537720
3169.287109	839.996277
3167.986328	857.131714
3166.685547	851.203125
3165.383789	891.382751
3164.082031	864.321899
3162.780273	937.129456
3161.478516	850.550781
3160.175781	902.217224
3158.873047	921.236694
3157.570313	869.250427
3156.267578	920.883484
3154.963867	893.852966
3153.660156	889.846008
3152.356445	860.914307
3151.052734	858.832153
3149.748047	868.250793
3148.443359	858.502747
3147.138672	894.740784
3145.833984	863.920105
3144.528320	854.178406
3143.222656	871.247986
3141.916992	957.231628
3140.610352	888.140503
3139.304688	874.573975
3137.998047	876.319519
3136.691406	920.150208
3135.383789	874.070557
3134.076172	896.849854
3132.768555	866.087402
3131.460938	829.602173
3130.153320	877.221863
3128.844727	909.536865
3127.536133	903.630981
3126.227539	920.647949
3124.917969	861.270752
3123.608398	790.460327
3122.298828	893.392212
3120.989258	864.591736
3119.678711	904.498352
3118.369141	892.877441
3117.057617	930.855713
3115.747070	909.698486
3114.436523	882.829102
3113.125000	854.063538
3111.813477	876.771729
3110.500977	884.225891
3109.189453	855.476501
3107.876953	849.597290
3106.564453	838.006653
3105.250977	885.450378
3103.937500	870.049500
3102.625000	841.330322
3101.310547	873.521179
3099.997070	875.255920
3098.682617	890.306519
3097.368164	865.409302
3096.053711	884.259216
3094.739258	889.792908
3093.423828	857.306396
3092.108398	885.649536
3090.792969	856.976624
3089.476563	834.014038
3088.160156	900.333923
3086.843750	877.371826
3085.527344	882.899109
3084.210938	850.457336
3082.893555	876.865356
3081.576172	920.341614
3080.257813	878.425049
3078.940430	792.896301
3077.622070	923.603271
3076.303711	919.633118
3074.984375	881.540344
3073.666016	909.801880
3072.346680	818.664001
3071.027344	922.714355
3069.707031	858.129517
3068.387695	890.161560
3067.067383	806.671875
3065.747070	861.420227
3064.425781	838.539856
3063.104492	811.883240
3061.783203	879.843750
3060.461914	904.267273
3059.140625	824.653870
3057.818359	877.444153
3056.496094	826.226685
3055.173828	882.776917
3053.850586	822.128296
3052.527344	882.436584
3051.204102	870.931152
3049.880859	849.985779
3048.556641	874.372314
3047.233398	942.176331
3045.909180	879.698425
3044.583984	864.429565
3043.259766	883.133179
3041.934570	865.982788
3040.608398	860.156799
3039.283203	910.911377
3037.957031	910.735657
3036.630859	878.511292
3035.304688	891.535706
3033.978516	853.673889
3032.651367	864.813904
3031.324219	866.530762
3029.997070	875.780518
3028.668945	868.079346
3027.341797	845.319702
3026.013672	888.449646
3024.684570	878.868408
3023.356445	882.461853
3022.027344	938.728027
3020.698242	855.789124
3019.368164	896.994690
3018.039063	859.218872
3016.708984	874.091064
3015.378906	920.907288
3014.047852	866.237244
3012.717773	841.647156
3011.386719	864.024292
3010.055664	877.002991
3008.723633	921.895691
3007.392578	936.735352
3006.060547	895.263367
3004.727539	896.966797
3003.395508	893.041199
3002.062500	829.092224
3000.729492	866.440247
2999.396484	843.772156
2998.062500	811.739319
2996.728516	869.686462
2995.394531	886.383972
2994.060547	861.855774
2992.725586	914.139709
2991.390625	895.234192
2990.055664	850.120728
2988.720703	806.896851
2987.384766	874.125122
2986.048828	894.541748
2984.712891	868.173767
2983.376953	933.480408
2982.040039	852.875122
2980.703125	884.499756
2979.366211	884.328552
2978.028320	932.758057
2976.690430	897.068542
2975.352539	917.448730
2974.014648	902.325806
2972.675781	887.208679
2971.336914	860.892639
2969.998047	901.801880
2968.659180	935.228271
2967.319336	933.180786
2965.979492	891.948059
2964.639648	841.403076
2963.299805	899.063721
2961.958984	857.861450
2960.618164	906.173706
2959.277344	902.269775
2957.935547	814.494812
2956.593750	866.514221
2955.251953	855.167664
2953.910156	840.099976
2952.567383	946.093262
2951.225586	912.393433
2949.881836	889.876587
2948.539063	912.039795
2947.195313	880.226929
2945.852539	913.546814
2944.507813	892.907227
2943.164063	875.995361
2941.819336	799.585938
2940.474609	905.401917
2939.129883	858.756836
2937.784180	825.138733
2936.439453	867.714050
2935.093750	899.126648
2933.747070	898.952271
2932.401367	848.639404
2931.054688	839.191650
2929.708008	929.985535
2928.360352	837.010132
2927.013672	862.825256
2925.666016	864.513000
2924.318359	821.684387
2922.969727	866.031921
2921.621094	901.091675
2920.272461	925.015381
2918.923828	865.527710
2917.575195	896.860962
2916.225586	863.338989
2914.875977	883.546631
2913.525391	842.632385
2912.175781	870.242432
2910.825195	847.858826
2909.474609	1017.973328
2908.123047	853.080994
2906.772461	821.462830
2905.420898	902.693665
2904.069336	878.475830
2902.716797	867.210754
2901.364258	865.193542
2900.011719	820.665161
2898.659180	883.337158
2897.305664	907.184631
2895.953125	901.466492
2894.599609	871.740723
2893.245117	882.650574
2891.891602	895.402344
2890.537109	799.244995
2889.181641	896.899658
2887.827148	874.583862
2886.471680	833.829224
2885.116211	842.889038
2883.760742	846.413208
2882.405273	838.873840
2881.048828	812.904175
2879.692383	891.993408
2878.334961	956.310974
2876.978516	946.913696
2875.621094	885.947205
2874.263672	894.982483
2872.905273	918.743469
2871.547852	848.613892
2870.189453	931.269104
2868.830078	892.445862
2867.471680	932.746338
2866.112305	838.756470
2864.752930	853.305359
2863.393555	886.235107
2862.033203	909.960510
2860.672852	911.621277
2859.312500	834.265015
2857.952148	894.731140
2856.590820	859.656311
2855.229492	841.123718
2853.868164	945.620850
2852.505859	919.735413
2851.144531	892.024597
2849.782227	890.015747
2848.418945	910.024292
2847.056641	981.387390
2845.693359	885.827515
2844.330078	856.316406
2842.965820	885.482300
2841.602539	971.457825
2840.238281	875.974182
2838.874023	870.306763
2837.508789	871.968933
2836.143555	888.282532
2834.778320	893.602783
2833.413086	876.951355
2832.046875	975.624084
2830.681641	843.667908
2829.314453	856.311401
2827.948242	943.954041
2826.581055	835.858215
2825.214844	859.467712
2823.846680	870.269775
2822.479492	923.110291
2821.111328	917.447388
2819.743164	889.859985
2818.375000	887.859436
2817.005859	924.216431
2815.636719	931.340698
2814.267578	861.778442
2812.898438	909.071777
2811.528320	907.069214
2810.158203	881.345886
2808.788086	921.310059
2807.416992	899.241943
2806.046875	900.890015
2804.675781	855.131348
2803.303711	849.495483
2801.932617	967.798279
2800.560547	885.608459
2799.188477	890.901123
2797.815430	901.656189
2796.443359	908.764709
2795.070313	934.078613
2793.696289	910.230103
2792.323242	859.089294
2790.949219	893.496643
2789.575195	846.017761
2788.201172	840.395264
2786.826172	883.879395
2785.451172	874.614929
2784.076172	967.160461
2782.701172	890.631531
2781.325195	857.746704
2779.949219	912.086121
2778.573242	897.375366
2777.196289	862.692139
2775.819336	882.497681
2774.442383	889.586975
2773.065430	824.068359
2771.687500	949.126465
2770.309570	899.951477
2768.931641	874.378540
2767.553711	890.530823
2766.174805	872.223022
2764.795898	868.426331
2763.416992	940.762085
2762.037109	902.519897
2760.657227	886.035828
2759.277344	876.804504
2757.897461	860.331787
2756.516602	927.165588
2755.135742	867.237000
2753.754883	894.219604
2752.373047	955.577942
2750.991211	886.631592
2749.609375	904.548950
2748.227539	875.431885
2746.844727	875.260376
2745.461914	940.178162
2744.079102	889.378906
2742.696289	928.965881
2741.312500	914.328064
2739.928711	838.270935
2738.544922	845.331726
2737.160156	904.761047
2735.775391	960.555969
2734.390625	920.653259
2733.005859	915.058228
2731.620117	907.660889
2730.234375	889.441528
2728.848633	883.855774
2727.461914	905.323669
2726.076172	903.343018
2724.689453	926.601318
2723.301758	881.360291
2721.915039	857.761169
2720.527344	823.361267
2719.138672	933.079773
2717.750977	860.858398
2716.362305	914.707642
2714.973633	880.323364
2713.584961	876.550842
2712.195313	896.173828
2710.806641	890.600403
2709.416016	973.172180
2708.026367	870.467468
2706.635742	846.920837
2705.245117	906.081360
2703.854492	857.372925
2702.462891	837.436768
2701.072266	883.987122
2699.680664	890.998962
2698.288086	905.192139
2696.896484	921.175354
2695.503906	944.333435
2694.110352	877.734497
2692.717773	902.686584
2691.324219	902.509216
2689.930664	923.858704
2688.537109	875.251404
2687.142578	862.527039
2685.748047	882.078857
2684.353516	880.112976
2682.958984	881.732178
2681.563477	883.350647
2680.167969	953.042908
2678.771484	866.883667
2677.375977	848.805908
2675.979492	950.690552
2674.583008	853.842285
2673.185547	862.622742
2671.789063	942.972595
2670.391602	887.329041
2668.993164	940.813049
2667.595703	906.650940
2666.197266	904.684692
2664.798828	902.719177
2663.400391	922.200867
2662.000977	904.150879
2660.601563	907.545959
2659.202148	925.228943
2657.801758	939.333313
2656.401367	862.373962
2655.000977	917.542358
2653.600586	878.097229
2652.199219	895.768372
2650.797852	954.465576
2649.396484	923.954834
2647.995117	845.305725
2646.592773	925.374023
2645.190430	896.669495
2643.787109	912.533508
2642.384766	901.662170
2640.981445	929.989990
2639.578125	976.119019
2638.173828	977.707642
2636.769531	909.854614
2635.365234	911.455505
2633.960938	881.018677
2632.555664	919.993774
2631.150391	925.149841
2629.745117	944.534180
2628.339844	890.994995
2626.933594	942.383789
2625.527344	954.642151
2624.121094	840.701477
2622.713867	829.873596
2621.306641	904.330505
2619.899414	881.059937
2618.492188	918.181763
2617.083984	948.186401
2615.675781	882.314026
2614.266602	887.464783
2612.858398	867.769348
2611.449219	910.179688
2610.040039	890.487427
2608.629883	954.158813
2607.220703	891.909241
2605.810547	921.871338
2604.399414	884.467346
2602.989258	871.887878
2601.578125	935.499878
2600.166992	882.172302
2598.754883	864.287354
2597.343750	913.697205
2595.930664	963.087524
2594.518555	853.155396
2593.106445	865.374695
2591.693359	877.589111
2590.280273	896.874634
2588.866211	875.473877
2587.452148	878.837524
2586.038086	885.735657
2584.624023	979.242798
2583.208984	908.359863
2581.794922	848.106201
2580.378906	938.032104
2578.963867	990.832397
2577.547852	948.256409
2576.131836	925.117615
2574.715820	903.753052
2573.298828	894.750488
2571.881836	949.271362
2570.464844	883.812134
2569.047852	917.148621
2567.629883	871.118896
2566.211914	915.022949
2564.793945	909.553894
2563.375000	946.383423
2561.956055	889.812073
2560.537109	917.822571
2559.118164	905.311890
2557.698242	889.284180
2556.278320	892.629456
2554.857422	929.418335
2553.437500	971.472351
2552.016602	932.569702
2550.595703	937.662781
2549.173828	946.271545
2547.752930	859.916748
2546.330078	875.570068
2544.908203	972.077148
2543.485352	908.615540
2542.063477	878.564453
2540.639648	915.282898
2539.216797	950.230286
2537.792969	888.579163
2536.369141	918.250732
2534.945313	947.910461
2533.520508	924.907166
2532.095703	894.894165
2530.670898	873.664734
2529.245117	884.015625
2527.819336	920.667175
2526.393555	888.925232
2524.967773	899.266846
2523.541016	937.646057
2522.114258	916.433044
2520.687500	928.514832
2519.260742	889.796326
2517.833008	924.644287
2516.405273	905.201416
2514.976563	931.279846
2513.547852	953.847473
2512.119141	918.661743
2510.690430	907.982666
2509.261719	925.293945
2507.832031	911.120117
2506.402344	888.209595
2504.971680	879.292908
2503.541016	893.100525
2502.110352	924.376587
2500.679688	962.628418
2499.248047	918.769653
2497.816406	950.021912
2496.384766	909.674927
2494.953125	834.430603
2493.520508	919.785828
2492.087891	910.878357
2490.655273	952.568726
2489.221680	987.265320
2487.788086	924.287476
2486.354492	972.924561
2484.919922	944.839417
2483.485352	989.967163
2482.050781	873.019470
2480.616211	970.409729
2479.180664	931.895996
2477.745117	964.799683
2476.309570	903.667053
2474.873047	898.265076
2473.437500	955.522339
2472.000000	934.450867
2470.563477	911.648010
2469.125977	960.171143
2467.688477	940.850281
2466.250977	838.077087
2464.812500	956.121887
2463.374023	961.145996
2461.935547	955.741760
2460.497070	906.905518
2459.057617	887.617920
2457.618164	934.331665
2456.177734	918.518860
2454.738281	899.240356
2453.297852	904.268433
2451.857422	971.765076
2450.416016	910.848511
2448.974609	891.586670
2447.533203	917.423157
2446.091797	891.231873
2444.649414	896.255249
2443.207031	974.072021
2441.764648	937.487671
2440.321289	925.173340
2438.877930	912.863892
2437.434570	897.095520
2435.990234	877.870483
2434.546875	900.200684
2433.101563	903.483093
2431.657227	906.764099
2430.211914	904.853455
2428.766602	892.564758
2427.321289	916.599060
2425.875977	909.500122
2424.429688	933.521362
2422.983398	907.409424
2421.536133	905.500610
2420.089844	939.874390
2418.642578	912.049255
2417.194336	885.962219
2415.747070	894.419006
2414.298828	946.030762
2412.849609	885.432556
2411.401367	964.635742
2409.952148	964.443481
2408.502930	907.327637
2407.052734	891.625183
2405.603516	955.245361
2404.152344	955.054932
2402.703125	932.457886
2401.251953	870.235352
2399.800781	921.748596
2398.349609	959.460876
2396.898438	893.825623
2395.445313	879.872375
2393.994141	914.127258
2392.541016	938.041321
2391.087891	898.274963
2389.634766	927.344055
2388.181641	930.599243
2386.728516	870.220398
2385.275391	959.458618
2383.820313	869.873047
2382.365234	902.356079
2380.910156	903.894409
2379.455078	919.176697
2378.000000	889.791504
2376.544922	874.157227
2375.089844	935.796753
2373.632813	908.142395
2372.175781	889.080933
2370.718750	935.236084
2369.261719	862.990417
2367.804688	929.716431
2366.347656	934.675720
2364.888672	908.769043
2363.429688	963.445557
2361.972656	918.689758
2360.513672	908.224365
2359.054688	889.196655
2357.593750	899.296570
2356.134766	854.589111
2354.673828	928.045471
2353.214844	921.012268
2351.753906	902.000793
2350.292969	886.419312
2348.832031	935.857910
2347.369141	884.354248
2345.908203	933.773376
2344.445313	899.389343
2342.984375	897.499878
2341.521484	928.085632
2340.058594	898.849670
2338.593750	854.248840
2337.130859	934.361267
2335.667969	905.141418
2334.203125	986.918945
2332.738281	1015.742676
2331.273438	1109.412720
2329.808594	1155.264771
2328.343750	1030.487793
2326.878906	962.050903
2325.412109	871.470886
2323.945313	878.116699
2322.478516	888.169312
2321.011719	884.582642
2319.544922	892.925781
2318.078125	880.820923
2316.611328	880.644470
2315.142578	931.559021
2313.673828	878.588989
2312.205078	880.115295
2310.736328	915.681152
2309.267578	924.005981
2307.798828	920.418152
2306.328125	865.802124
2304.859375	833.316345
2303.388672	924.965759
2301.917969	894.180969
2300.447266	892.302063
2298.974609	909.116028
2297.503906	873.255920
2296.031250	930.833252
2294.560547	906.870972
2293.087891	855.751465
2291.615234	882.741150
2290.142578	938.572937
2288.667969	877.296326
2287.195313	865.244446
2285.720703	910.868713
2284.246094	897.118896
2282.773438	903.721069
2281.296875	918.796448
2279.822266	884.714966
2278.347656	852.341553
2276.871094	901.301575
2275.396484	838.448730
2273.919922	946.664124
2272.443359	858.429993
2270.966797	917.506165
2269.488281	880.087463
2268.011719	900.216370
2266.533203	910.186340
2265.056641	913.386475
2263.578125	848.940552
2262.099609	914.710327
2260.619141	838.456909
2259.140625	872.090393
2257.662109	905.710388
2256.181641	890.323608
2254.701172	945.884277
2253.220703	883.210815
2251.740234	893.163757
2250.259766	919.993164
2248.777344	938.373169
2247.296875	931.434998
2245.814453	936.308899
2244.332031	907.446655
2242.849609	834.750549
2241.367188	873.361267
2239.884766	969.269775
2238.400391	859.527222
2236.917969	886.314514
2235.433594	864.235474
2233.949219	955.015503
2232.464844	900.935608
2230.978516	872.132263
2229.494141	925.822815
2228.009766	890.294067
2226.523438	873.288513
2225.037109	901.711853
2223.550781	940.215393
2222.064453	901.348877
2220.576172	882.673340
2219.089844	897.624084
2217.601563	868.873108
2216.115234	870.378418
2214.626953	865.163330
2213.138672	880.105469
2211.648438	908.475464
2210.160156	903.255737
2208.669922	884.609497
2207.181641	928.065491
2205.691406	869.152039
2204.201172	899.173035
2202.710938	870.479004
2201.218750	908.872009
2199.728516	898.629578
2198.236328	905.153259
2196.744141	874.805176
2195.251953	921.543762
2193.759766	892.879639
2192.267578	958.019165
2190.775391	915.962952
2189.281250	915.778320
2187.787109	870.399780
2186.294922	845.121643
2184.800781	906.858521
2183.304688	1017.082581
2181.810547	938.270142
2180.316406	889.588257
2178.820313	894.424255
2177.324219	934.359436
2175.828125	882.365356
2174.332031	918.945129
2172.835938	912.077820
2171.337891	851.768860
2169.841797	933.417053
2168.343750	888.153198
2166.845703	886.304810
2165.347656	906.151306
2163.849609	827.551208
2162.351563	972.509949
2160.851563	888.924805
2159.353516	888.745239
2157.853516	943.580139
2156.353516	918.388123
2154.853516	903.204712
2153.353516	856.371704
2151.851563	916.165894
2150.351563	907.653687
2148.849609	945.767212
2147.347656	930.593384
2145.845703	912.096863
2144.343750	866.982483
2142.839844	940.011719
2141.337891	861.641846
2139.833984	866.456909
2138.330078	859.630798
2136.826172	934.264709
2135.322266	874.241760
2133.818359	869.079834
2132.314453	920.406982
2130.808594	930.187134
2129.302734	870.213379
2127.796875	860.075073
2126.291016	879.821594
2124.785156	947.691528
2123.279297	912.653015
2121.771484	917.445435
2120.263672	928.870728
2118.757813	912.099121
2117.250000	877.095947
2115.740234	958.145325
2114.232422	921.489563
2112.724609	904.732788
2111.214844	904.549683
2109.705078	891.115723
2108.195313	869.407104
2106.685547	938.769592
2105.175781	913.749329
2103.664063	930.114380
2102.154297	979.566162
2100.642578	888.379150
2099.130859	911.355225
2097.619141	859.906921
2096.107422	960.585999
2094.595703	935.596436
2093.082031	887.479614
2091.570313	836.077637
2090.056641	920.159790
2088.542969	875.378540
2087.029297	911.530212
2085.513672	912.996460
2084.000000	879.798279
2082.484375	924.178528
2080.968750	904.191345
2079.455078	895.759766
2077.937500	910.421936
2076.421875	906.939331
2074.906250	918.295898
2073.388672	944.482605
2071.873047	926.163269
2070.355469	927.623047
2068.837891	815.417847
2067.320313	904.189026
2065.800781	882.599243
2064.283203	948.272400
2062.763672	906.930603
2061.244141	877.125061
2059.724609	903.271912
2058.205078	919.538269
2056.685547	916.062317
2055.164063	909.299133
2053.644531	920.622253
2052.123047	931.940735
2050.601563	874.235962
2049.080078	892.131104
2047.558594	913.304138
2046.035156	921.330078
2044.513672	949.056396
2042.990234	893.048035
2041.466797	858.399353
2039.943359	933.709351
2038.419922	841.644226
2036.896484	889.041870
2035.371094	890.501160
2033.847656	919.833496
2032.322266	891.778503
2030.796875	919.459595
2029.271484	906.163635
2027.744141	873.213440
2026.218750	909.071106
2024.691406	946.551819
2023.164063	854.670532
2021.636719	895.420898
2020.109375	878.872437
2018.582031	919.601196
2017.054688	934.137817
2015.525391	899.599487
2013.996094	935.393066
2012.468750	915.583130
2010.939453	854.915222
2009.408203	890.695984
2007.878906	936.265930
2006.347656	856.027039
2004.818359	860.752686
2003.287109	920.997559
2001.755859	909.381531
2000.224609	902.667175
1998.691406	899.219421
1997.160156	951.248962
1995.626953	947.792603
1994.093750	934.551697
1992.560547	903.379089
1991.027344	919.498230
1989.494141	880.191284
1987.960938	888.160217
1986.425781	915.677734
1984.890625	871.508484
1983.355469	920.190552
1981.820313	941.171265
1980.285156	883.999695
1978.750000	901.723816
1977.212891	878.757385
1975.675781	896.475220
1974.138672	932.079102
1972.601563	905.867676
1971.064453	887.796997
1969.527344	933.134705
1967.988281	926.443054
1966.451172	874.253906
1964.912109	893.571655
1963.373047	878.770325
1961.833984	953.295654
1960.292969	897.895996
1958.753906	900.959473
1957.212891	879.676392
1955.671875	933.045593
1954.130859	890.673889
1952.589844	918.066528
1951.048828	888.688660
1949.505859	914.449097
1947.964844	881.841736
1946.421875	847.626953
1944.878906	972.222473
1943.335938	907.222351
1941.792969	958.867798
1940.248047	842.076721
1938.705078	937.428528
1937.160156	942.093201
1935.615234	935.427246
1934.070313	881.840271
1932.525391	936.662781
1930.978516	954.262756
1929.433594	933.045898
1927.886719	911.837708
1926.339844	942.363037
1924.792969	927.625732
1923.246094	898.352783
1921.699219	911.092468
1920.150391	910.906189
1918.601563	868.736389
1917.052734	854.028992
1915.503906	892.592529
1913.955078	892.410034
1912.406250	922.882690
1910.855469	892.045044
1909.306641	864.445435
1907.755859	933.603577
1906.205078	865.703918
1904.654297	894.538879
1903.101563	921.750549
1901.550781	884.506104
1899.998047	926.205688
1898.447266	897.027832
1896.894531	922.606323
1895.339844	891.831238
1893.787109	952.808655
1892.234375	873.765503
1890.679688	884.848328
1889.125000	866.973816
1887.570313	921.473572
1886.015625	916.461426
1884.460938	925.918701
1882.906250	856.620789
1881.349609	874.120544
1879.792969	898.039124
1878.236328	894.642822
1876.679688	844.678101
1875.123047	908.725952
1873.566406	906.934509
1872.007813	932.426514
1870.449219	930.630859
1868.890625	935.252747
1867.332031	866.094238
1865.773438	958.922546
1864.214844	901.010010
1862.654297	942.500488
1861.093750	908.653381
1859.533203	881.229065
1857.972656	818.574036
1856.412109	903.289734
1854.851563	952.743164
1853.289063	878.905396
1851.728516	864.319763
1850.166016	902.548767
1848.603516	919.962891
1847.039063	854.190186
1845.476563	930.780273
1843.914063	909.802917
1842.349609	880.840942
1840.785156	904.634583
1839.220703	944.398010
1837.656250	899.470276
1836.091797	883.312500
1834.525391	915.070801
1832.958984	887.739746
1831.392578	877.979492
1829.826172	909.719177
1828.259766	871.236206
1826.693359	887.010681
1825.125000	913.943726
1823.558594	904.187805
1821.990234	897.624634
1820.421875	889.470032
1818.853516	851.038330
1817.285156	919.378662
1815.714844	850.688538
1814.144531	847.328247
1812.576172	893.333557
1811.005859	885.189575
1809.433594	867.498413
1807.863281	875.277100
1806.292969	929.194031
1804.720703	847.874268
1803.148438	928.811951
1801.576172	907.949524
1800.003906	915.711670
1798.431641	855.124207
1796.857422	924.869690
1795.285156	878.604309
1793.710938	945.139282
1792.136719	875.066528
1790.562500	890.764587
1788.986328	979.480652
1787.412109	860.241882
1785.835938	902.909363
1784.259766	909.069519
1782.683594	924.744202
1781.107422	907.109375
1779.531250	900.580505
1777.955078	822.720154
1776.376953	868.512085
1774.798828	884.178711
1773.220703	891.917725
1771.642578	858.472168
1770.064453	939.057434
1768.484375	867.617981
1766.906250	918.092590
1765.326172	879.921204
1763.746094	892.398010
1762.166016	917.525146
1760.583984	896.775085
1759.003906	847.570313
1757.421875	867.948059
1755.841797	932.575256
1754.259766	903.937378
1752.675781	932.190735
1751.093750	931.998474
1749.511719	879.688354
1747.927734	852.663757
1746.343750	898.269653
1744.759766	888.614258
1743.175781	869.494568
1741.591797	831.450317
1740.005859	921.189392
1738.421875	883.150024
1736.835938	857.740112
1735.250000	890.667542
1733.664063	868.418640
1732.076172	923.390747
1730.490234	836.551697
1728.902344	899.383057
1727.316406	891.323486
1725.728516	858.075989
1724.138672	890.955444
1722.550781	920.673706
1720.962891	885.867065
1719.373047	912.427673
1717.783203	890.219666
1716.193359	902.615784
1714.603516	907.145813
1713.013672	864.518433
1711.421875	946.059204
1709.830078	905.012451
1708.240234	884.404053
1706.648438	890.503479
1705.054688	937.426270
1703.462891	888.565491
1701.871094	894.660095
1700.277344	907.029175
1698.683594	898.997009
1697.089844	894.105286
1695.496094	919.012939
1693.902344	906.279236
1692.306641	913.929932
1690.710938	860.452393
1689.117188	835.202698
1687.521484	921.196228
1685.923828	928.837280
1684.328125	872.268677
1682.730469	920.624512
1681.134766	862.515564
1679.537109	888.942749
1677.939453	877.805725
1676.341797	890.139160
1674.742188	905.595642
1673.144531	875.696960
1671.544922	961.503845
1669.945313	905.033264
1668.345703	890.780884
1666.746094	842.160461
1665.144531	896.660461
1663.544922	844.935303
1661.943359	844.760254
1660.341797	880.491821
1658.740234	894.356934
1657.138672	862.961426
1655.535156	898.666931
1653.933594	903.160278
1652.330078	848.389221
1650.726563	854.450256
1649.123047	862.067627
1647.519531	883.708923
1645.914063	925.598328
1644.310547	909.827209
1642.705078	897.177795
1641.099609	918.793640
1639.494141	881.236206
1637.888672	829.684570
1636.281250	840.406677
1634.675781	851.124268
1633.068359	878.949646
1631.460938	832.107056
1629.853516	923.680481
1628.244141	870.629211
1626.636719	851.796082
1625.027344	887.362427
1623.417969	922.914001
1621.808594	902.528198
1620.199219	804.496643
1618.589844	906.811768
1616.978516	880.232117
1615.369141	892.466248
1613.757813	873.659424
1612.146484	845.551514
1610.535156	885.705811
1608.921875	876.216858
1607.310547	920.999512
1605.697266	920.808167
1604.083984	833.824707
1602.470703	858.444092
1600.857422	866.011780
1599.242188	907.651978
1597.628906	878.040527
1596.013672	902.630005
1594.398438	818.854248
1592.783203	840.350586
1591.167969	868.026978
1589.550781	869.393494
1587.935547	906.332153
1586.318359	926.245850
1584.701172	915.231262
1583.083984	806.843506
1581.466797	883.943481
1579.847656	869.854309
1578.230469	851.136841
1576.611328	821.616333
1574.992188	864.679321
1573.373047	853.693176
1571.751953	833.450989
1570.132813	885.743164
1568.511719	880.930481
1566.890625	877.662170
1565.269531	891.358765
1563.648438	897.340515
1562.027344	872.489685
1560.404297	876.931580
1558.783203	949.169373
1557.160156	948.971741
1555.537109	1021.164307
1553.912109	910.079041
1552.289063	888.335449
1550.664063	925.092529
1549.041016	915.666199
1547.416016	889.318970
1545.791016	861.444397
1544.164063	890.486389
1542.539063	876.461975
1540.912109	883.965942
1539.287109	866.874573
1537.660156	866.693909
1536.033203	935.649902
1534.404297	930.846680
1532.777344	870.759155
1531.148438	885.931641
1529.519531	919.518921
1527.890625	899.375122
1526.261719	877.705261
1524.632813	903.602417
1523.001953	832.858643
1521.373047	861.821228
1519.742188	855.508728
1518.111328	916.644226
1516.478516	862.814392
1514.847656	870.295410
1513.214844	876.241333
1511.583984	863.805847
1509.951172	917.219360
1508.318359	892.532959
1506.683594	867.856873
1505.050781	942.659973
1503.416016	873.614380
1501.783203	902.495361
1500.148438	841.133545
1498.511719	871.538147
1496.876953	891.229126
1495.242188	871.174072
1493.605469	912.249634
1491.968750	934.975098
1490.332031	884.374939
1488.695313	829.214600
1487.058594	864.157227
1485.419922	903.664612
1483.781250	903.475708
1482.142578	877.347900
1480.503906	877.164490
1478.865234	883.081848
1477.226563	841.725830
1475.585938	881.188049
1473.945313	925.206360
1472.304688	871.676086
1470.664063	912.630676
1469.023438	924.625977
1467.380859	906.157104
1465.740234	895.309143
1464.097656	875.331726
1462.455078	917.764465
1460.812500	878.008789
1459.167969	810.885193
1457.525391	863.951965
1455.880859	918.517151
1454.236328	874.233154
1452.591797	918.132690
1450.947266	863.228760
1449.302734	901.034302
1447.656250	876.539490
1446.009766	927.995667
1444.363281	942.986267
1442.716797	920.016052
1441.070313	865.180420
1439.421875	953.016602
1437.775391	910.334656
1436.126953	867.670593
1434.478516	970.616821
1432.830078	864.274475
1431.179688	909.571899
1429.531250	883.615479
1427.880859	903.129395
1426.230469	949.905090
1424.580078	867.913086
1422.929688	917.705200
1421.279297	813.043518
1419.626953	933.971436
1417.974609	871.725647
1416.322266	879.108276
1414.669922	886.487793
1413.017578	886.301880
1411.363281	858.897339
1409.710938	882.906372
1408.056641	902.370789
1406.402344	893.114258
1404.748047	874.796387
1403.091797	954.672302
1401.437500	869.898499
1399.781250	866.696045
1398.125000	904.254272
1396.468750	913.120178
1394.812500	879.731079
1393.154297	924.806030
1391.498047	891.428406
1389.839844	885.209106
1388.181641	915.177307
1386.523438	904.433350
1384.865234	828.889771
1383.205078	855.837219
1381.544922	887.292664
1379.884766	875.057251
1378.224609	858.309509
1376.564453	841.568787
1374.904297	868.485046
1373.242188	943.545349
1371.580078	853.074585
1369.919922	851.390991
1368.255859	935.430908
1366.593750	879.601318
1364.931641	838.827942
1363.267578	882.237366
1361.603516	868.528015
1359.939453	836.796509
1358.275391	859.150635
1356.611328	875.488586
1354.945313	860.290588
1353.279297	885.627686
1351.613281	870.433899
1349.947266	864.248962
1348.281250	871.567688
1346.615234	892.381470
1344.947266	940.177185
1343.279297	862.022461
1341.611328	885.822693
1339.943359	890.131775
1338.275391	909.421265
1336.605469	868.786316
1334.935547	870.100952
1333.267578	880.398621
1331.597656	874.225342
1329.925781	848.598206
1328.255859	861.886475
1326.583984	875.169006
1324.912109	861.523315
1323.240234	874.800293
1321.568359	837.239197
1319.896484	863.968323
1318.224609	913.102722
1316.550781	902.451416
1314.876953	863.422119
1313.203125	914.018921
1311.529297	880.976257
1309.853516	825.554504
1308.179688	897.022827
1306.503906	853.558838
1304.828125	892.168762
1303.152344	865.131714
1301.474609	894.775024
1299.798828	905.023132
1298.121094	867.565613
1296.443359	858.440491
1294.765625	812.068298
1293.087891	828.283875
1291.410156	910.026306
1289.730469	917.279724
1288.050781	870.934021
1286.371094	848.423279
1284.691406	882.471558
1283.011719	906.090576
1281.332031	858.298645
1279.650391	859.604614
1277.968750	901.056030
1276.287109	951.409302
1274.605469	863.518860
1272.921875	857.392639
1271.240234	901.780579
1269.556641	849.603821
1267.873047	907.339600
1266.189453	872.999878
1264.505859	909.924927
1262.820313	893.407898
1261.134766	859.092712
1259.451172	861.878052
1257.765625	821.651428
1256.078125	803.683960
1254.392578	879.121460
1252.705078	849.291870
1251.019531	890.604675
1249.332031	850.414246
1247.642578	909.484192
1245.955078	897.444397
1244.267578	851.355347
1242.578125	845.254028
1240.888672	827.315308
1239.199219	855.254150
1237.509766	903.892212
1235.818359	792.772034
1234.128906	828.093933
1232.437500	882.620422
1230.746094	830.699646
1229.054688	876.335632
1227.363281	887.969971
1225.669922	809.491699
1223.976563	844.764954
1222.283203	825.390930
1220.589844	841.454712
1218.896484	811.757996
1217.203125	858.805603
1215.507813	885.179077
1213.812500	855.491821
1212.117188	887.753357
1210.421875	834.488281
1208.726563	847.577881
1207.029297	832.660889
1205.332031	836.904663
1203.636719	827.888611
1201.937500	827.713074
1200.240234	806.922791
1198.542969	858.277832
1196.843750	894.892395
1195.144531	838.783691
1193.445313	847.433228
1191.746094	834.015198
1190.046875	842.661926
1188.345703	871.889221
1186.644531	864.354309
1184.943359	881.807068
1183.242188	827.253418
1181.541016	871.149475
1179.837891	870.964600
1178.136719	838.474304
1176.433594	888.212402
1174.730469	801.423157
1173.027344	911.315247
1171.322266	867.106201
1169.619141	853.720276
1167.914063	856.472107
1166.208984	837.228943
1164.503906	873.699585
1162.796875	820.751465
1161.091797	893.842896
1159.384766	873.142944
1157.677734	818.763794
1155.970703	888.880188
1154.263672	859.409851
1152.554688	887.038696
1150.847656	888.313599
1149.138672	912.998169
1147.429688	861.605164
1145.720703	797.071289
1144.009766	875.860901
1142.300781	891.755493
1140.589844	853.564697
1138.878906	847.538086
1137.167969	863.428406
1135.455078	883.693909
1133.744141	860.140503
1132.031250	873.097778
1130.318359	896.267517
1128.605469	818.728210
1126.892578	863.786011
1125.179688	901.530701
1123.464844	841.541260
1121.750000	845.736633
1120.035156	870.340210
1118.320313	938.659546
1116.605469	871.426880
1114.888672	888.724487
1113.171875	889.991882
1111.455078	803.880371
1109.738281	902.716797
1108.021484	889.423340
1106.302734	919.796814
1104.585938	836.662170
1102.867188	885.945618
1101.148438	894.483521
1099.429688	889.930481
1097.708984	814.141968
1095.990234	896.818848
1094.269531	899.534119
1092.548828	915.324219
1090.828125	918.034302
1089.105469	910.577209
1087.384766	924.902710
1085.662109	869.542542
1083.939453	880.967896
1082.216797	863.367615
1080.492188	938.621338
1078.769531	906.511902
1077.044922	864.265381
1075.320313	909.024780
1073.595703	891.436951
1071.871094	924.577942
1070.146484	891.056580
1068.419922	896.660706
1066.693359	909.503601
1064.966797	848.495789
1063.240234	894.639038
1061.513672	910.368652
1059.785156	855.187622
1058.056641	844.878052
1056.328125	888.089661
1054.599609	900.914795
1052.871094	828.433289
1051.140625	896.193604
1049.412109	885.886047
1047.681641	892.921082
1045.951172	834.948425
1044.218750	866.543274
1042.488281	870.689880
1040.755859	876.278320
1039.023438	936.710205
1037.291016	891.776855
1035.558594	865.617676
1033.826172	832.257751
1032.091797	862.363464
1030.357422	922.733459
1028.623047	873.526428
1026.888672	906.486206
1025.154297	840.013428
1023.417969	844.155334
1021.681641	888.621948
1019.945313	891.311707
1018.208984	891.120972
1016.472656	903.884094
1014.734375	978.518555
1012.998047	933.709778
1011.259766	936.386719
1009.521484	891.606018
1007.783203	943.174805
1006.042969	915.661133
1004.302734	993.071289
1002.564453	961.248108
1000.824219	917.946228
999.082031	917.749634
997.341797	930.476379
995.599609	1000.622131
993.859375	937.254395
992.117188	929.878601
990.373047	942.591614
988.630859	995.461853
986.886719	1052.611572
985.144531	993.601501
983.400391	944.650940
981.656250	993.175659
979.910156	967.171570
978.166016	1005.642822
976.419922	991.104919
974.673828	999.483948
972.927734	984.953491
971.181641	948.959473
969.433594	1027.461182
967.687500	998.626892
965.939453	1004.134277
964.191406	993.908264
962.441406	1005.133301
960.693359	977.757690
958.943359	974.689575
957.195313	993.055603
955.445313	961.414368
953.693359	985.488159
951.943359	1030.970581
950.191406	1002.196716
948.441406	1013.400146
946.689453	984.642212
944.935547	1037.219116
943.183594	1002.762695
941.431641	1062.443481
939.677734	1009.460999
937.923828	1029.200928
936.169922	996.200745
934.414063	1004.536011
932.660156	982.951660
930.904297	1092.408569
929.148438	1036.639648
927.392578	1124.683105
925.636719	1064.661011
923.878906	1035.971313
922.123047	1024.366821
920.365234	1086.733398
918.607422	1066.590088
916.849609	1019.440857
915.089844	1027.750732
913.330078	1063.059692
911.572266	1125.350586
909.812500	1086.752563
908.050781	1053.852173
906.291016	1077.765137
904.529297	1010.808594
902.767578	1064.527100
901.005859	1055.783691
899.244141	1058.394043
897.482422	1046.818604
895.718750	1107.573608
893.957031	1032.189575
892.193359	1006.451660
890.427734	1064.341553
888.664063	998.933716
886.898438	959.053162
885.134766	1039.576782
883.369141	1005.368530
881.603516	1000.904907
879.835938	1047.397583
878.070313	980.662354
876.302734	966.303162
874.535156	956.193542
872.767578	987.099548
871.000000	969.920288
869.230469	942.853333
867.460938	948.303223
865.693359	996.139526
863.921875	913.990601
862.152344	936.391174
860.382813	989.847229
858.611328	916.222961
856.839844	992.243225
855.068359	908.772156
853.296875	902.932800
851.523438	915.432800
849.751953	906.773987
847.978516	943.236267
846.205078	881.009644
844.431641	899.140625
842.656250	900.355591
840.880859	931.152710
839.107422	859.123413
837.332031	844.856995
835.554688	872.830444
833.779297	874.049500
832.001953	873.860779
830.226563	915.878479
828.447266	910.054382
826.669922	935.170715
824.892578	885.759827
823.113281	836.370239
821.333984	879.755798
819.554688	897.831421
817.775391	906.065979
815.996094	867.950012
814.214844	921.120056
812.435547	929.343994
810.654297	880.019287
808.871094	954.200562
807.089844	944.173767
805.306641	837.369812
803.525391	879.258545
801.742188	893.088623
799.958984	870.467957
798.173828	885.695313
796.390625	907.921509
794.605469	896.518677
792.820313	903.327271
791.035156	897.531006
789.248047	922.535034
787.462891	946.128601
785.675781	870.361877
783.888672	860.380554
782.101563	899.357666
780.314453	871.195190
778.525391	905.958740
776.736328	865.226929
774.947266	873.424438
773.158203	884.412720
771.369141	888.411804
769.578125	874.253723
767.789063	881.045654
765.998047	845.955688
764.207031	849.959412
762.414063	845.589172
760.623047	835.640564
758.830078	866.144104
757.037109	831.095032
755.244141	856.009644
753.451172	830.734802
751.656250	830.554749
749.863281	830.374695
748.068359	820.444031
746.271484	846.726318
744.476563	818.695923
742.681641	838.006897
740.884766	812.773926
739.087891	820.946228
737.291016	785.989868
735.494141	798.336792
733.695313	838.488953
731.896484	763.234741
730.097656	768.628784
728.298828	808.761108
726.500000	807.196228
724.701172	802.853943
722.900391	806.845825
721.099609	830.273804
719.298828	837.034119
717.496094	804.932617
715.695313	781.170105
713.892578	753.256226
712.089844	790.539185
710.287109	786.207642
708.484375	827.626099
706.679688	765.075989
704.876953	752.438416
703.072266	796.607849
701.267578	796.434753
699.460938	745.023987
697.656250	783.628113
695.849609	773.768372
694.042969	763.912842
692.236328	826.008728
690.429688	771.880493
688.621094	791.074646
686.812500	742.508240
685.005859	671.844543
683.195313	736.656921
681.386719	765.514343
679.578125	700.417603
677.767578	749.988220
675.957031	769.157532
674.146484	728.952942
672.333984	761.921326
670.523438	765.895508
668.710938	753.311584
666.898438	733.836121
665.085938	710.231812
663.273438	756.956116
661.458984	749.898804
659.644531	711.146179
657.830078	763.351135
656.015625	721.857239
654.201172	732.718323
652.384766	738.066650
650.570313	717.255554
648.753906	704.711731
646.935547	681.164673
645.119141	700.277283
643.300781	730.385498
641.484375	734.351868
639.666016	732.816895
637.847656	714.787476
636.027344	801.212036
634.208984	750.199646
632.388672	741.793945
630.568359	686.696472
628.748047	690.665955
626.925781	705.616089
625.105469	748.009521
623.283203	735.496582
621.460938	744.939392
619.636719	648.765137
617.814453	708.960632
615.990234	693.724976
614.167969	667.530273
612.343750	737.274963
610.517578	745.334656
608.693359	669.832886
606.867188	694.337646
605.041016	731.154541
603.214844	663.918579
601.388672	711.674805
599.562500	684.153259
597.734375	686.739868
595.906250	730.356506
594.078125	680.970215
592.250000	690.391235
590.419922	710.742554
588.591797	728.351929
586.761719	717.263062
584.931641	714.374451
583.099609	674.615417
581.269531	740.003296
579.437500	674.320496
577.605469	704.196960
575.773438	705.407410
573.941406	748.905212
572.107422	702.371277
570.273438	741.760010
568.439453	757.956604
566.605469	797.315857
564.771484	726.284424
562.935547	779.256653
561.101563	753.207397
559.265625	742.148682
557.427734	702.504395
555.591797	781.297058
553.753906	755.269958
551.917969	755.104614
550.080078	802.548096
548.240234	764.293701
546.402344	750.529785
544.562500	776.193237
542.724609	777.382324
540.884766	773.135742
539.042969	782.475647
537.203125	759.215454
535.361328	833.731934
533.519531	800.967529
531.677734	788.576538
529.835938	782.975830
527.994141	797.727722
526.150391	748.723083
524.306641	759.407654
522.462891	741.615967
520.619141	756.363770
518.773438	796.853760
516.927734	766.871277
515.082031	792.440491
513.236328	780.078003
511.390625	727.100708
509.542969	722.880066
507.697266	789.038635
505.849609	784.806213
504.000000	784.633972
502.152344	738.476135
500.302734	782.937439
498.455078	801.692566
496.605469	713.660645
494.753906	781.070679
492.904297	711.996338
491.052734	769.921875
489.203125	735.991699
487.351563	808.738037
485.498047	753.216553
483.646484	690.971619
481.792969	748.837952
479.939453	778.350586
478.085938	721.535706
476.232422	782.053711
474.376953	736.047424
472.523438	766.884521
470.667969	769.410950
468.812500	759.811584
466.955078	751.563232
465.099609	759.477539
463.242188	741.808777
461.384766	761.835632
459.527344	749.556824
457.667969	729.210876
455.810547	722.324890
453.951172	745.027893
452.091797	770.409912
450.232422	735.290588
448.371094	698.842773
446.511719	717.499878
444.650391	746.895386
442.789063	725.242371
440.927734	750.594910
439.064453	742.375000
437.201172	730.132202
435.337891	764.859802
433.474609	786.156433
431.611328	725.626221
429.748047	732.171326
427.882813	756.142273
426.017578	781.442993
424.152344	735.707947
422.285156	743.584595
420.419922	736.723328
418.552734	751.292236
416.685547	728.365234
414.818359	740.252258
412.949219	717.337708
411.082031	711.827515
409.212891	762.504272
407.343750	760.998718
405.472656	739.436768
403.603516	776.705322
401.732422	723.072144
399.861328	765.672791
397.990234	765.503906
396.119141	762.663757
394.246094	750.477173
392.375000	785.023560
390.501953	788.854675
388.628906	769.997864
386.753906	825.863953
384.880859	750.983521
383.005859	782.824158
381.130859	753.318604
379.253906	782.478638
377.378906	792.967651
375.501953	756.817078
373.626953	815.263733
371.748047	789.778809
369.871094	802.919800
367.994141	818.717407
366.115234	853.141418
364.236328	831.662354
362.357422	810.192749
360.478516	856.566284
358.597656	825.792114
356.716797	864.164673
354.835938	899.861816
352.955078	837.204773
351.074219	842.334106
349.191406	881.997192
347.308594	873.834106
345.425781	874.968628
343.542969	795.129456
341.658203	856.001770
339.775391	845.197754
337.890625	843.684265
336.005859	839.518860
334.119141	861.874451
332.234375	900.128113
330.347656	856.191589
328.460938	859.977356
326.574219	892.906738
324.685547	862.245728
322.798828	888.538940
320.910156	877.750977
319.021484	870.938538
317.132813	926.325256
315.242188	893.044373
313.351563	890.201172
311.460938	854.298035
309.570313	854.108826
307.679688	889.609802
305.787109	915.843994
303.896484	835.043518
302.003906	789.945251
300.111328	835.994202
298.216797	860.896362
296.322266	854.105103
294.429688	859.195007
292.535156	848.448425
290.638672	883.879333
288.744141	861.261536
286.847656	801.731873
284.951172	852.969543
283.054688	887.049744
281.158203	830.189331
279.259766	922.227966
277.361328	824.552307
275.462891	812.517456
273.564453	830.769470
271.666016	879.288208
269.765625	809.344666
267.865234	828.900757
265.964844	828.716797
264.064453	882.453186
262.162109	804.681763
260.261719	870.230469
258.359375	847.694946
256.457031	800.203979
254.552734	802.653625
252.650391	811.669006
250.746094	756.338989
248.841797	865.133118
246.937500	828.190796
245.031250	792.577026
243.126953	793.712830
241.220703	801.406189
239.314453	809.096130
237.406250	835.137268
235.500000	841.505371
233.591797	824.282288
231.683594	791.344666
229.775391	810.816956
227.865234	725.513245
225.957031	801.291260
224.046875	808.967102
222.136719	817.948181
220.226563	794.214600
218.314453	774.415894
216.402344	778.167114
214.490234	719.154053
212.578125	771.284485
210.666016	763.271057
208.751953	763.101135
206.839844	812.574097
204.925781	773.210266
203.009766	767.814880
201.095703	821.170105
